Sample 2 - sdpdrr2 - Wavelength 0.79764
  1.500 341
  1.505 326
  1.510 329
  1.515 323
  1.520 330
  1.525 314
  1.530 349
  1.535 361
  1.540 326
  1.545 352
  1.550 352
  1.555 352
  1.560 346
  1.565 352
  1.570 333
  1.575 345
  1.580 311
  1.585 320
  1.590 317
  1.595 336
  1.600 357
  1.605 320
  1.610 333
  1.615 324
  1.620 362
  1.625 337
  1.630 336
  1.635 347
  1.640 334
  1.645 324
  1.650 312
  1.655 344
  1.660 332
  1.665 309
  1.670 316
  1.675 331
  1.680 319
  1.685 333
  1.690 363
  1.695 328
  1.700 327
  1.705 314
  1.710 332
  1.715 325
  1.720 341
  1.725 332
  1.730 366
  1.735 338
  1.740 310
  1.745 323
  1.750 307
  1.755 355
  1.760 321
  1.765 346
  1.770 355
  1.775 295
  1.780 361
  1.785 321
  1.790 329
  1.795 317
  1.800 341
  1.805 345
  1.810 341
  1.815 327
  1.820 346
  1.825 317
  1.830 317
  1.835 339
  1.840 333
  1.845 349
  1.850 330
  1.855 316
  1.860 343
  1.865 331
  1.870 330
  1.875 370
  1.880 310
  1.885 315
  1.890 313
  1.895 337
  1.900 355
  1.905 306
  1.910 321
  1.915 332
  1.920 344
  1.925 293
  1.930 343
  1.935 302
  1.940 334
  1.945 306
  1.950 376
  1.955 318
  1.960 310
  1.965 337
  1.970 339
  1.975 338
  1.980 337
  1.985 281
  1.990 353
  1.995 337
  2.000 349
  2.005 316
  2.010 315
  2.015 335
  2.020 360
  2.025 321
  2.030 285
  2.035 335
  2.040 322
  2.045 297
  2.050 304
  2.055 330
  2.060 351
  2.065 330
  2.070 343
  2.075 331
  2.080 333
  2.085 350
  2.090 328
  2.095 347
  2.100 326
  2.105 320
  2.110 324
  2.115 304
  2.120 356
  2.125 345
  2.130 329
  2.135 370
  2.140 338
  2.145 287
  2.150 345
  2.155 337
  2.160 345
  2.165 339
  2.170 325
  2.175 326
  2.180 336
  2.185 321
  2.190 316
  2.195 313
  2.200 323
  2.205 310
  2.210 332
  2.215 329
  2.220 346
  2.225 343
  2.230 335
  2.235 313
  2.240 308
  2.245 326
  2.250 306
  2.255 312
  2.260 337
  2.265 286
  2.270 321
  2.275 333
  2.280 353
  2.285 342
  2.290 329
  2.295 350
  2.300 306
  2.305 327
  2.310 294
  2.315 312
  2.320 310
  2.325 315
  2.330 318
  2.335 340
  2.340 320
  2.345 310
  2.350 295
  2.355 319
  2.360 308
  2.365 317
  2.370 321
  2.375 313
  2.380 332
  2.385 319
  2.390 335
  2.395 326
  2.400 338
  2.405 334
  2.410 314
  2.415 298
  2.420 343
  2.425 315
  2.430 317
  2.435 306
  2.440 328
  2.445 325
  2.450 313
  2.455 306
  2.460 330
  2.465 322
  2.470 302
  2.475 313
  2.480 329
  2.485 318
  2.490 337
  2.495 326
  2.500 329
  2.505 291
  2.510 332
  2.515 315
  2.520 306
  2.525 325
  2.530 323
  2.535 271
  2.540 344
  2.545 327
  2.550 304
  2.555 300
  2.560 321
  2.565 340
  2.570 322
  2.575 314
  2.580 329
  2.585 309
  2.590 335
  2.595 324
  2.600 316
  2.605 334
  2.610 311
  2.615 311
  2.620 339
  2.625 282
  2.630 332
  2.635 303
  2.640 315
  2.645 324
  2.650 314
  2.655 313
  2.660 317
  2.665 316
  2.670 349
  2.675 308
  2.680 285
  2.685 330
  2.690 305
  2.695 320
  2.700 316
  2.705 317
  2.710 314
  2.715 316
  2.720 309
  2.725 312
  2.730 335
  2.735 318
  2.740 337
  2.745 343
  2.750 271
  2.755 333
  2.760 336
  2.765 306
  2.770 333
  2.775 322
  2.780 301
  2.785 326
  2.790 307
  2.795 309
  2.800 305
  2.805 323
  2.810 332
  2.815 288
  2.820 361
  2.825 299
  2.830 306
  2.835 313
  2.840 312
  2.845 353
  2.850 313
  2.855 281
  2.860 323
  2.865 299
  2.870 322
  2.875 295
  2.880 331
  2.885 334
  2.890 311
  2.895 318
  2.900 320
  2.905 311
  2.910 340
  2.915 300
  2.920 311
  2.925 336
  2.930 304
  2.935 318
  2.940 331
  2.945 309
  2.950 304
  2.955 323
  2.960 329
  2.965 317
  2.970 307
  2.975 357
  2.980 306
  2.985 318
  2.990 281
  2.995 330
  3.000 323
  3.005 277
  3.010 295
  3.015 324
  3.020 327
  3.025 288
  3.030 329
  3.035 330
  3.040 292
  3.045 320
  3.050 316
  3.055 296
  3.060 268
  3.065 343
  3.070 313
  3.075 300
  3.080 297
  3.085 321
  3.090 307
  3.095 321
  3.100 329
  3.105 304
  3.110 316
  3.115 337
  3.120 315
  3.125 321
  3.130 297
  3.135 309
  3.140 323
  3.145 326
  3.150 351
  3.155 301
  3.160 323
  3.165 322
  3.170 342
  3.175 289
  3.180 311
  3.185 291
  3.190 349
  3.195 328
  3.200 286
  3.205 303
  3.210 318
  3.215 327
  3.220 288
  3.225 297
  3.230 304
  3.235 349
  3.240 319
  3.245 269
  3.250 308
  3.255 319
  3.260 285
  3.265 286
  3.270 304
  3.275 299
  3.280 293
  3.285 317
  3.290 325
  3.295 294
  3.300 317
  3.305 291
  3.310 302
  3.315 300
  3.320 285
  3.325 323
  3.330 330
  3.335 300
  3.340 297
  3.345 293
  3.350 275
  3.355 327
  3.360 295
  3.365 311
  3.370 302
  3.375 302
  3.380 344
  3.385 326
  3.390 297
  3.395 302
  3.400 297
  3.405 298
  3.410 296
  3.415 319
  3.420 328
  3.425 289
  3.430 311
  3.435 312
  3.440 263
  3.445 298
  3.450 320
  3.455 312
  3.460 312
  3.465 327
  3.470 303
  3.475 320
  3.480 311
  3.485 282
  3.490 305
  3.495 299
  3.500 327
  3.505 305
  3.510 312
  3.515 310
  3.520 325
  3.525 321
  3.530 270
  3.535 305
  3.540 291
  3.545 297
  3.550 312
  3.555 327
  3.560 294
  3.565 297
  3.570 301
  3.575 296
  3.580 318
  3.585 293
  3.590 297
  3.595 312
  3.600 294
  3.605 302
  3.610 293
  3.615 343
  3.620 302
  3.625 321
  3.630 320
  3.635 275
  3.640 269
  3.645 285
  3.650 314
  3.655 307
  3.660 309
  3.665 308
  3.670 311
  3.675 310
  3.680 299
  3.685 287
  3.690 284
  3.695 305
  3.700 316
  3.705 302
  3.710 279
  3.715 281
  3.720 307
  3.725 289
  3.730 332
  3.735 283
  3.740 269
  3.745 293
  3.750 295
  3.755 309
  3.760 302
  3.765 292
  3.770 330
  3.775 317
  3.780 320
  3.785 313
  3.790 317
  3.795 306
  3.800 309
  3.805 287
  3.810 295
  3.815 286
  3.820 305
  3.825 302
  3.830 297
  3.835 300
  3.840 291
  3.845 296
  3.850 297
  3.855 332
  3.860 300
  3.865 294
  3.870 304
  3.875 299
  3.880 289
  3.885 305
  3.890 293
  3.895 318
  3.900 319
  3.905 302
  3.910 307
  3.915 279
  3.920 279
  3.925 293
  3.930 319
  3.935 329
  3.940 320
  3.945 305
  3.950 300
  3.955 279
  3.960 293
  3.965 341
  3.970 280
  3.975 299
  3.980 282
  3.985 299
  3.990 294
  3.995 304
  4.000 327
  4.005 304
  4.010 314
  4.015 306
  4.020 302
  4.025 281
  4.030 301
  4.035 287
  4.040 280
  4.045 300
  4.050 296
  4.055 284
  4.060 335
  4.065 299
  4.070 327
  4.075 303
  4.080 307
  4.085 302
  4.090 300
  4.095 331
  4.100 298
  4.105 308
  4.110 337
  4.115 294
  4.120 323
  4.125 288
  4.130 291
  4.135 307
  4.140 337
  4.145 297
  4.150 317
  4.155 313
  4.160 333
  4.165 320
  4.170 363
  4.175 347
  4.180 338
  4.185 351
  4.190 342
  4.195 358
  4.200 409
  4.205 377
  4.210 434
  4.215 461
  4.220 564
  4.225 793
  4.230 1268
  4.235 2134
  4.240 3480
  4.245 4814
  4.250 4023
  4.255 2397
  4.260 1201
  4.265 692
  4.270 481
  4.275 455
  4.280 424
  4.285 382
  4.290 377
  4.295 383
  4.300 348
  4.305 329
  4.310 350
  4.315 331
  4.320 336
  4.325 309
  4.330 279
  4.335 326
  4.340 331
  4.345 316
  4.350 337
  4.355 300
  4.360 327
  4.365 284
  4.370 297
  4.375 318
  4.380 322
  4.385 323
  4.390 301
  4.395 332
  4.400 310
  4.405 289
  4.410 282
  4.415 321
  4.420 315
  4.425 280
  4.430 300
  4.435 319
  4.440 283
  4.445 292
  4.450 317
  4.455 302
  4.460 291
  4.465 312
  4.470 308
  4.475 313
  4.480 311
  4.485 309
  4.490 291
  4.495 277
  4.500 326
  4.505 318
  4.510 303
  4.515 297
  4.520 281
  4.525 300
  4.530 285
  4.535 286
  4.540 316
  4.545 287
  4.550 303
  4.555 274
  4.560 313
  4.565 318
  4.570 292
  4.575 290
  4.580 327
  4.585 276
  4.590 310
  4.595 311
  4.600 309
  4.605 323
  4.610 293
  4.615 316
  4.620 284
  4.625 300
  4.630 277
  4.635 299
  4.640 302
  4.645 318
  4.650 319
  4.655 283
  4.660 316
  4.665 258
  4.670 299
  4.675 288
  4.680 304
  4.685 311
  4.690 326
  4.695 294
  4.700 297
  4.705 291
  4.710 309
  4.715 323
  4.720 322
  4.725 315
  4.730 314
  4.735 319
  4.740 345
  4.745 348
  4.750 402
  4.755 435
  4.760 472
  4.765 561
  4.770 769
  4.775 1388
  4.780 2221
  4.785 2915
  4.790 2673
  4.795 1658
  4.800 962
  4.805 582
  4.810 465
  4.815 425
  4.820 366
  4.825 381
  4.830 338
  4.835 351
  4.840 315
  4.845 307
  4.850 312
  4.855 311
  4.860 320
  4.865 292
  4.870 302
  4.875 311
  4.880 311
  4.885 325
  4.890 311
  4.895 296
  4.900 268
  4.905 262
  4.910 270
  4.915 309
  4.920 292
  4.925 278
  4.930 281
  4.935 278
  4.940 337
  4.945 307
  4.950 308
  4.955 306
  4.960 302
  4.965 275
  4.970 302
  4.975 325
  4.980 302
  4.985 304
  4.990 262
  4.995 281
  5.000 295
  5.005 280
  5.010 292
  5.015 341
  5.020 294
  5.025 278
  5.030 317
  5.035 341
  5.040 323
  5.045 303
  5.050 302
  5.055 290
  5.060 307
  5.065 270
  5.070 267
  5.075 294
  5.080 293
  5.085 314
  5.090 259
  5.095 293
  5.100 298
  5.105 286
  5.110 285
  5.115 304
  5.120 263
  5.125 286
  5.130 269
  5.135 264
  5.140 281
  5.145 280
  5.150 271
  5.155 286
  5.160 299
  5.165 282
  5.170 289
  5.175 305
  5.180 267
  5.185 287
  5.190 277
  5.195 288
  5.200 303
  5.205 326
  5.210 317
  5.215 317
  5.220 279
  5.225 310
  5.230 288
  5.235 268
  5.240 295
  5.245 326
  5.250 279
  5.255 300
  5.260 302
  5.265 309
  5.270 314
  5.275 316
  5.280 292
  5.285 312
  5.290 312
  5.295 312
  5.300 338
  5.305 305
  5.310 320
  5.315 337
  5.320 320
  5.325 346
  5.330 333
  5.335 343
  5.340 366
  5.345 402
  5.350 393
  5.355 425
  5.360 409
  5.365 482
  5.370 526
  5.375 672
  5.380 815
  5.385 1043
  5.390 1759
  5.395 3267
  5.400 5924
  5.405 8929
  5.410 9025
  5.415 5984
  5.420 3161
  5.425 1546
  5.430 932
  5.435 707
  5.440 610
  5.445 531
  5.450 462
  5.455 452
  5.460 375
  5.465 407
  5.470 373
  5.475 360
  5.480 341
  5.485 296
  5.490 351
  5.495 283
  5.500 322
  5.505 298
  5.510 326
  5.515 323
  5.520 328
  5.525 332
  5.530 312
  5.535 318
  5.540 300
  5.545 308
  5.550 307
  5.555 268
  5.560 306
  5.565 325
  5.570 270
  5.575 284
  5.580 306
  5.585 300
  5.590 283
  5.595 266
  5.600 311
  5.605 279
  5.610 271
  5.615 293
  5.620 285
  5.625 301
  5.630 281
  5.635 282
  5.640 277
  5.645 279
  5.650 262
  5.655 306
  5.660 298
  5.665 271
  5.670 288
  5.675 265
  5.680 285
  5.685 280
  5.690 315
  5.695 288
  5.700 274
  5.705 309
  5.710 289
  5.715 298
  5.720 281
  5.725 288
  5.730 275
  5.735 274
  5.740 278
  5.745 274
  5.750 287
  5.755 308
  5.760 263
  5.765 266
  5.770 294
  5.775 268
  5.780 289
  5.785 295
  5.790 266
  5.795 276
  5.800 306
  5.805 259
  5.810 294
  5.815 243
  5.820 295
  5.825 285
  5.830 272
  5.835 275
  5.840 296
  5.845 283
  5.850 287
  5.855 287
  5.860 259
  5.865 275
  5.870 288
  5.875 263
  5.880 291
  5.885 298
  5.890 283
  5.895 286
  5.900 272
  5.905 312
  5.910 291
  5.915 281
  5.920 309
  5.925 286
  5.930 273
  5.935 264
  5.940 256
  5.945 292
  5.950 265
  5.955 284
  5.960 288
  5.965 278
  5.970 295
  5.975 274
  5.980 298
  5.985 237
  5.990 299
  5.995 281
  6.000 290
  6.005 300
  6.010 258
  6.015 272
  6.020 267
  6.025 320
  6.030 301
  6.035 270
  6.040 312
  6.045 352
  6.050 326
  6.055 417
  6.060 550
  6.065 752
  6.070 859
  6.075 780
  6.080 603
  6.085 409
  6.090 370
  6.095 309
  6.100 304
  6.105 286
  6.110 303
  6.115 274
  6.120 281
  6.125 267
  6.130 245
  6.135 272
  6.140 268
  6.145 273
  6.150 281
  6.155 289
  6.160 253
  6.165 287
  6.170 269
  6.175 262
  6.180 268
  6.185 304
  6.190 263
  6.195 288
  6.200 271
  6.205 293
  6.210 262
  6.215 253
  6.220 251
  6.225 271
  6.230 265
  6.235 275
  6.240 269
  6.245 275
  6.250 267
  6.255 224
  6.260 274
  6.265 258
  6.270 270
  6.275 297
  6.280 255
  6.285 273
  6.290 265
  6.295 253
  6.300 253
  6.305 251
  6.310 254
  6.315 280
  6.320 274
  6.325 258
  6.330 271
  6.335 282
  6.340 297
  6.345 294
  6.350 248
  6.355 279
  6.360 242
  6.365 306
  6.370 273
  6.375 271
  6.380 273
  6.385 286
  6.390 284
  6.395 269
  6.400 265
  6.405 287
  6.410 286
  6.415 300
  6.420 272
  6.425 291
  6.430 260
  6.435 305
  6.440 268
  6.445 283
  6.450 297
  6.455 289
  6.460 279
  6.465 261
  6.470 256
  6.475 293
  6.480 242
  6.485 242
  6.490 265
  6.495 269
  6.500 270
  6.505 246
  6.510 300
  6.515 269
  6.520 286
  6.525 238
  6.530 233
  6.535 254
  6.540 266
  6.545 281
  6.550 261
  6.555 296
  6.560 256
  6.565 287
  6.570 271
  6.575 279
  6.580 268
  6.585 283
  6.590 271
  6.595 285
  6.600 255
  6.605 276
  6.610 266
  6.615 287
  6.620 271
  6.625 291
  6.630 297
  6.635 252
  6.640 312
  6.645 250
  6.650 273
  6.655 274
  6.660 268
  6.665 250
  6.670 243
  6.675 278
  6.680 264
  6.685 250
  6.690 282
  6.695 276
  6.700 242
  6.705 278
  6.710 242
  6.715 289
  6.720 282
  6.725 271
  6.730 258
  6.735 285
  6.740 292
  6.745 260
  6.750 256
  6.755 258
  6.760 278
  6.765 268
  6.770 266
  6.775 266
  6.780 253
  6.785 252
  6.790 259
  6.795 252
  6.800 279
  6.805 254
  6.810 254
  6.815 284
  6.820 292
  6.825 271
  6.830 289
  6.835 309
  6.840 268
  6.845 261
  6.850 268
  6.855 272
  6.860 280
  6.865 259
  6.870 242
  6.875 253
  6.880 289
  6.885 273
  6.890 254
  6.895 261
  6.900 270
  6.905 241
  6.910 296
  6.915 245
  6.920 281
  6.925 272
  6.930 262
  6.935 306
  6.940 265
  6.945 272
  6.950 276
  6.955 286
  6.960 275
  6.965 290
  6.970 314
  6.975 298
  6.980 302
  6.985 358
  6.990 405
  6.995 569
  7.000 897
  7.005 1119
  7.010 1126
  7.015 1085
  7.020 791
  7.025 527
  7.030 370
  7.035 334
  7.040 306
  7.045 319
  7.050 320
  7.055 284
  7.060 304
  7.065 270
  7.070 255
  7.075 283
  7.080 275
  7.085 273
  7.090 271
  7.095 268
  7.100 297
  7.105 311
  7.110 287
  7.115 256
  7.120 246
  7.125 291
  7.130 283
  7.135 277
  7.140 264
  7.145 286
  7.150 297
  7.155 243
  7.160 253
  7.165 275
  7.170 267
  7.175 246
  7.180 284
  7.185 294
  7.190 281
  7.195 269
  7.200 295
  7.205 273
  7.210 261
  7.215 275
  7.220 284
  7.225 262
  7.230 251
  7.235 276
  7.240 256
  7.245 274
  7.250 301
  7.255 288
  7.260 316
  7.265 298
  7.270 284
  7.275 281
  7.280 259
  7.285 254
  7.290 253
  7.295 278
  7.300 281
  7.305 307
  7.310 332
  7.315 348
  7.320 336
  7.325 340
  7.330 410
  7.335 532
  7.340 809
  7.345 1327
  7.350 1857
  7.355 1978
  7.360 1484
  7.365 878
  7.370 583
  7.375 387
  7.380 356
  7.385 334
  7.390 339
  7.395 303
  7.400 294
  7.405 284
  7.410 303
  7.415 252
  7.420 296
  7.425 294
  7.430 265
  7.435 257
  7.440 278
  7.445 263
  7.450 261
  7.455 249
  7.460 228
  7.465 275
  7.470 278
  7.475 259
  7.480 269
  7.485 253
  7.490 255
  7.495 241
  7.500 288
  7.505 249
  7.510 267
  7.515 280
  7.520 263
  7.525 217
  7.530 249
  7.535 259
  7.540 247
  7.545 248
  7.550 244
  7.555 263
  7.560 266
  7.565 284
  7.570 285
  7.575 244
  7.580 266
  7.585 266
  7.590 263
  7.595 255
  7.600 264
  7.605 234
  7.610 280
  7.615 282
  7.620 248
  7.625 243
  7.630 242
  7.635 222
  7.640 268
  7.645 281
  7.650 233
  7.655 261
  7.660 256
  7.665 273
  7.670 249
  7.675 275
  7.680 252
  7.685 256
  7.690 250
  7.695 250
  7.700 241
  7.705 253
  7.710 234
  7.715 263
  7.720 270
  7.725 267
  7.730 250
  7.735 270
  7.740 306
  7.745 295
  7.750 317
  7.755 325
  7.760 390
  7.765 518
  7.770 639
  7.775 649
  7.780 588
  7.785 536
  7.790 496
  7.795 568
  7.800 555
  7.805 471
  7.810 339
  7.815 311
  7.820 302
  7.825 259
  7.830 248
  7.835 292
  7.840 257
  7.845 261
  7.850 257
  7.855 266
  7.860 259
  7.865 262
  7.870 241
  7.875 265
  7.880 259
  7.885 276
  7.890 265
  7.895 244
  7.900 244
  7.905 262
  7.910 254
  7.915 282
  7.920 258
  7.925 245
  7.930 242
  7.935 277
  7.940 260
  7.945 238
  7.950 268
  7.955 269
  7.960 262
  7.965 250
  7.970 238
  7.975 250
  7.980 224
  7.985 232
  7.990 256
  7.995 267
  8.000 281
  8.005 258
  8.010 251
  8.015 244
  8.020 271
  8.025 262
  8.030 227
  8.035 246
  8.040 241
  8.045 251
  8.050 252
  8.055 241
  8.060 286
  8.065 259
  8.070 278
  8.075 228
  8.080 229
  8.085 251
  8.090 254
  8.095 242
  8.100 266
  8.105 229
  8.110 269
  8.115 249
  8.120 229
  8.125 272
  8.130 241
  8.135 251
  8.140 231
  8.145 232
  8.150 253
  8.155 298
  8.160 248
  8.165 280
  8.170 259
  8.175 282
  8.180 224
  8.185 257
  8.190 258
  8.195 250
  8.200 256
  8.205 235
  8.210 238
  8.215 246
  8.220 275
  8.225 241
  8.230 249
  8.235 249
  8.240 235
  8.245 259
  8.250 226
  8.255 240
  8.260 260
  8.265 240
  8.270 265
  8.275 273
  8.280 260
  8.285 272
  8.290 246
  8.295 264
  8.300 258
  8.305 265
  8.310 238
  8.315 260
  8.320 272
  8.325 282
  8.330 261
  8.335 260
  8.340 248
  8.345 255
  8.350 246
  8.355 241
  8.360 276
  8.365 267
  8.370 275
  8.375 269
  8.380 284
  8.385 251
  8.390 292
  8.395 261
  8.400 319
  8.405 319
  8.410 251
  8.415 291
  8.420 326
  8.425 285
  8.430 321
  8.435 365
  8.440 381
  8.445 446
  8.450 614
  8.455 926
  8.460 1489
  8.465 2169
  8.470 2323
  8.475 1900
  8.480 1448
  8.485 1563
  8.490 2056
  8.495 2704
  8.500 2681
  8.505 1948
  8.510 1162
  8.515 700
  8.520 488
  8.525 389
  8.530 359
  8.535 340
  8.540 365
  8.545 317
  8.550 325
  8.555 290
  8.560 274
  8.565 268
  8.570 286
  8.575 265
  8.580 287
  8.585 280
  8.590 290
  8.595 276
  8.600 255
  8.605 285
  8.610 260
  8.615 280
  8.620 237
  8.625 258
  8.630 260
  8.635 248
  8.640 244
  8.645 256
  8.650 254
  8.655 231
  8.660 261
  8.665 237
  8.670 276
  8.675 223
  8.680 251
  8.685 287
  8.690 259
  8.695 264
  8.700 252
  8.705 250
  8.710 249
  8.715 255
  8.720 265
  8.725 249
  8.730 240
  8.735 231
  8.740 245
  8.745 257
  8.750 263
  8.755 236
  8.760 253
  8.765 265
  8.770 257
  8.775 245
  8.780 264
  8.785 264
  8.790 239
  8.795 237
  8.800 284
  8.805 246
  8.810 274
  8.815 243
  8.820 263
  8.825 244
  8.830 259
  8.835 238
  8.840 226
  8.845 242
  8.850 242
  8.855 276
  8.860 270
  8.865 253
  8.870 264
  8.875 256
  8.880 243
  8.885 237
  8.890 227
  8.895 231
  8.900 258
  8.905 221
  8.910 248
  8.915 233
  8.920 252
  8.925 261
  8.930 269
  8.935 232
  8.940 236
  8.945 238
  8.950 233
  8.955 242
  8.960 229
  8.965 257
  8.970 246
  8.975 257
  8.980 244
  8.985 256
  8.990 241
  8.995 252
  9.000 254
  9.005 257
  9.010 272
  9.015 231
  9.020 252
  9.025 235
  9.030 249
  9.035 232
  9.040 244
  9.045 274
  9.050 261
  9.055 244
  9.060 252
  9.065 271
  9.070 300
  9.075 310
  9.080 417
  9.085 475
  9.090 692
  9.095 952
  9.100 1011
  9.105 815
  9.110 556
  9.115 462
  9.120 368
  9.125 389
  9.130 347
  9.135 336
  9.140 290
  9.145 270
  9.150 285
  9.155 281
  9.160 284
  9.165 272
  9.170 255
  9.175 263
  9.180 295
  9.185 293
  9.190 251
  9.195 266
  9.200 240
  9.205 251
  9.210 264
  9.215 241
  9.220 274
  9.225 260
  9.230 270
  9.235 268
  9.240 305
  9.245 260
  9.250 278
  9.255 297
  9.260 318
  9.265 377
  9.270 400
  9.275 522
  9.280 830
  9.285 1300
  9.290 2034
  9.295 2529
  9.300 2159
  9.305 1315
  9.310 790
  9.315 474
  9.320 391
  9.325 332
  9.330 292
  9.335 302
  9.340 271
  9.345 274
  9.350 245
  9.355 283
  9.360 250
  9.365 266
  9.370 276
  9.375 251
  9.380 275
  9.385 247
  9.390 252
  9.395 243
  9.400 259
  9.405 252
  9.410 237
  9.415 269
  9.420 245
  9.425 252
  9.430 240
  9.435 256
  9.440 267
  9.445 227
  9.450 259
  9.455 247
  9.460 246
  9.465 236
  9.470 244
  9.475 242
  9.480 239
  9.485 241
  9.490 235
  9.495 280
  9.500 292
  9.505 280
  9.510 303
  9.515 238
  9.520 280
  9.525 277
  9.530 296
  9.535 317
  9.540 345
  9.545 353
  9.550 344
  9.555 485
  9.560 615
  9.565 864
  9.570 1653
  9.575 2498
  9.580 3254
  9.585 2816
  9.590 1847
  9.595 1050
  9.600 612
  9.605 477
  9.610 387
  9.615 335
  9.620 311
  9.625 327
  9.630 294
  9.635 298
  9.640 276
  9.645 317
  9.650 255
  9.655 273
  9.660 248
  9.665 263
  9.670 247
  9.675 254
  9.680 248
  9.685 250
  9.690 254
  9.695 251
  9.700 248
  9.705 245
  9.710 256
  9.715 269
  9.720 295
  9.725 256
  9.730 234
  9.735 241
  9.740 237
  9.745 275
  9.750 233
  9.755 217
  9.760 259
  9.765 249
  9.770 238
  9.775 245
  9.780 215
  9.785 233
  9.790 249
  9.795 266
  9.800 250
  9.805 228
  9.810 240
  9.815 252
  9.820 248
  9.825 237
  9.830 246
  9.835 228
  9.840 258
  9.845 248
  9.850 280
  9.855 280
  9.860 381
  9.865 476
  9.870 521
  9.875 549
  9.880 444
  9.885 321
  9.890 304
  9.895 285
  9.900 276
  9.905 242
  9.910 231
  9.915 239
  9.920 260
  9.925 245
  9.930 213
  9.935 259
  9.940 229
  9.945 244
  9.950 224
  9.955 242
  9.960 260
  9.965 243
  9.970 248
  9.975 236
  9.980 222
  9.985 236
  9.990 233
  9.995 222
 10.000 243
 10.005 260
 10.010 230
 10.015 242
 10.020 215
 10.025 199
 10.030 246
 10.035 224
 10.040 213
 10.045 231
 10.050 230
 10.055 238
 10.060 243
 10.065 230
 10.070 210
 10.075 214
 10.080 236
 10.085 224
 10.090 254
 10.095 245
 10.100 226
 10.105 234
 10.110 227
 10.115 257
 10.120 245
 10.125 243
 10.130 243
 10.135 236
 10.140 290
 10.145 277
 10.150 255
 10.155 276
 10.160 272
 10.165 307
 10.170 301
 10.175 306
 10.180 273
 10.185 262
 10.190 212
 10.195 236
 10.200 266
 10.205 227
 10.210 230
 10.215 233
 10.220 249
 10.225 235
 10.230 223
 10.235 249
 10.240 222
 10.245 233
 10.250 230
 10.255 222
 10.260 225
 10.265 239
 10.270 227
 10.275 235
 10.280 227
 10.285 231
 10.290 225
 10.295 239
 10.300 243
 10.305 243
 10.310 213
 10.315 235
 10.320 236
 10.325 234
 10.330 237
 10.335 251
 10.340 225
 10.345 232
 10.350 193
 10.355 225
 10.360 217
 10.365 229
 10.370 244
 10.375 210
 10.380 231
 10.385 236
 10.390 242
 10.395 226
 10.400 253
 10.405 235
 10.410 227
 10.415 239
 10.420 229
 10.425 224
 10.430 204
 10.435 227
 10.440 218
 10.445 214
 10.450 222
 10.455 248
 10.460 220
 10.465 226
 10.470 257
 10.475 241
 10.480 225
 10.485 234
 10.490 233
 10.495 228
 10.500 219
 10.505 221
 10.510 236
 10.515 251
 10.520 232
 10.525 234
 10.530 222
 10.535 219
 10.540 239
 10.545 220
 10.550 253
 10.555 237
 10.560 224
 10.565 254
 10.570 221
 10.575 225
 10.580 203
 10.585 237
 10.590 214
 10.595 238
 10.600 264
 10.605 244
 10.610 244
 10.615 261
 10.620 262
 10.625 207
 10.630 230
 10.635 251
 10.640 249
 10.645 246
 10.650 261
 10.655 254
 10.660 270
 10.665 229
 10.670 244
 10.675 262
 10.680 228
 10.685 249
 10.690 238
 10.695 261
 10.700 228
 10.705 236
 10.710 235
 10.715 263
 10.720 246
 10.725 258
 10.730 246
 10.735 278
 10.740 262
 10.745 257
 10.750 297
 10.755 314
 10.760 311
 10.765 317
 10.770 357
 10.775 332
 10.780 346
 10.785 392
 10.790 414
 10.795 480
 10.800 626
 10.805 786
 10.810 1210
 10.815 2201
 10.820 3449
 10.825 4671
 10.830 4716
 10.835 3439
 10.840 2201
 10.845 1338
 10.850 1030
 10.855 817
 10.860 716
 10.865 801
 10.870 950
 10.875 1406
 10.880 2194
 10.885 3578
 10.890 5165
 10.895 5825
 10.900 4847
 10.905 2995
 10.910 1771
 10.915 958
 10.920 719
 10.925 548
 10.930 544
 10.935 577
 10.940 629
 10.945 723
 10.950 938
 10.955 950
 10.960 838
 10.965 633
 10.970 480
 10.975 492
 10.980 473
 10.985 673
 10.990 884
 10.995 1151
 11.000 1203
 11.005 1009
 11.010 651
 11.015 464
 11.020 382
 11.025 344
 11.030 301
 11.035 267
 11.040 331
 11.045 314
 11.050 299
 11.055 333
 11.060 286
 11.065 307
 11.070 386
 11.075 437
 11.080 595
 11.085 918
 11.090 1155
 11.095 1308
 11.100 937
 11.105 637
 11.110 417
 11.115 355
 11.120 354
 11.125 314
 11.130 370
 11.135 335
 11.140 356
 11.145 426
 11.150 496
 11.155 786
 11.160 1229
 11.165 1897
 11.170 2463
 11.175 2258
 11.180 1571
 11.185 932
 11.190 524
 11.195 405
 11.200 354
 11.205 313
 11.210 258
 11.215 303
 11.220 283
 11.225 235
 11.230 263
 11.235 266
 11.240 257
 11.245 253
 11.250 271
 11.255 238
 11.260 252
 11.265 269
 11.270 237
 11.275 238
 11.280 282
 11.285 237
 11.290 232
 11.295 253
 11.300 227
 11.305 240
 11.310 253
 11.315 243
 11.320 225
 11.325 225
 11.330 228
 11.335 254
 11.340 249
 11.345 269
 11.350 231
 11.355 259
 11.360 256
 11.365 251
 11.370 258
 11.375 256
 11.380 265
 11.385 278
 11.390 307
 11.395 324
 11.400 394
 11.405 494
 11.410 702
 11.415 1126
 11.420 1813
 11.425 2291
 11.430 2142
 11.435 1513
 11.440 889
 11.445 535
 11.450 385
 11.455 335
 11.460 295
 11.465 261
 11.470 282
 11.475 277
 11.480 253
 11.485 257
 11.490 297
 11.495 253
 11.500 245
 11.505 259
 11.510 252
 11.515 262
 11.520 255
 11.525 269
 11.530 265
 11.535 315
 11.540 367
 11.545 456
 11.550 583
 11.555 499
 11.560 402
 11.565 333
 11.570 278
 11.575 272
 11.580 244
 11.585 258
 11.590 259
 11.595 239
 11.600 215
 11.605 238
 11.610 278
 11.615 223
 11.620 201
 11.625 199
 11.630 218
 11.635 229
 11.640 209
 11.645 221
 11.650 225
 11.655 238
 11.660 220
 11.665 246
 11.670 227
 11.675 220
 11.680 232
 11.685 219
 11.690 231
 11.695 192
 11.700 205
 11.705 195
 11.710 241
 11.715 222
 11.720 226
 11.725 203
 11.730 225
 11.735 222
 11.740 231
 11.745 235
 11.750 209
 11.755 241
 11.760 233
 11.765 238
 11.770 228
 11.775 225
 11.780 233
 11.785 226
 11.790 223
 11.795 214
 11.800 224
 11.805 242
 11.810 249
 11.815 191
 11.820 237
 11.825 215
 11.830 214
 11.835 228
 11.840 219
 11.845 227
 11.850 205
 11.855 220
 11.860 236
 11.865 225
 11.870 232
 11.875 225
 11.880 232
 11.885 214
 11.890 238
 11.895 240
 11.900 219
 11.905 230
 11.910 236
 11.915 257
 11.920 258
 11.925 270
 11.930 333
 11.935 328
 11.940 529
 11.945 775
 11.950 914
 11.955 882
 11.960 732
 11.965 532
 11.970 363
 11.975 282
 11.980 269
 11.985 252
 11.990 238
 11.995 261
 12.000 235
 12.005 235
 12.010 227
 12.015 237
 12.020 245
 12.025 198
 12.030 219
 12.035 235
 12.040 218
 12.045 229
 12.050 217
 12.055 222
 12.060 208
 12.065 233
 12.070 223
 12.075 243
 12.080 236
 12.085 251
 12.090 211
 12.095 214
 12.100 221
 12.105 229
 12.110 220
 12.115 227
 12.120 218
 12.125 227
 12.130 247
 12.135 233
 12.140 286
 12.145 313
 12.150 366
 12.155 488
 12.160 516
 12.165 480
 12.170 389
 12.175 293
 12.180 307
 12.185 267
 12.190 251
 12.195 268
 12.200 226
 12.205 273
 12.210 272
 12.215 263
 12.220 286
 12.225 283
 12.230 323
 12.235 346
 12.240 394
 12.245 493
 12.250 548
 12.255 776
 12.260 1131
 12.265 1605
 12.270 1896
 12.275 1604
 12.280 1143
 12.285 662
 12.290 442
 12.295 336
 12.300 310
 12.305 273
 12.310 266
 12.315 292
 12.320 260
 12.325 273
 12.330 235
 12.335 282
 12.340 270
 12.345 255
 12.350 254
 12.355 253
 12.360 249
 12.365 281
 12.370 297
 12.375 304
 12.380 289
 12.385 320
 12.390 329
 12.395 426
 12.400 526
 12.405 809
 12.410 1209
 12.415 1696
 12.420 2226
 12.425 2578
 12.430 2957
 12.435 2845
 12.440 2244
 12.445 1356
 12.450 791
 12.455 559
 12.460 440
 12.465 333
 12.470 331
 12.475 312
 12.480 295
 12.485 272
 12.490 282
 12.495 277
 12.500 247
 12.505 241
 12.510 276
 12.515 240
 12.520 234
 12.525 262
 12.530 246
 12.535 226
 12.540 247
 12.545 239
 12.550 221
 12.555 225
 12.560 203
 12.565 218
 12.570 210
 12.575 256
 12.580 247
 12.585 241
 12.590 243
 12.595 244
 12.600 235
 12.605 239
 12.610 245
 12.615 267
 12.620 264
 12.625 260
 12.630 271
 12.635 263
 12.640 275
 12.645 234
 12.650 265
 12.655 298
 12.660 239
 12.665 234
 12.670 252
 12.675 333
 12.680 278
 12.685 317
 12.690 309
 12.695 346
 12.700 364
 12.705 367
 12.710 350
 12.715 455
 12.720 473
 12.725 605
 12.730 710
 12.735 968
 12.740 1453
 12.745 2561
 12.750 4420
 12.755 7070
 12.760 8777
 12.765 7879
 12.770 5251
 12.775 3394
 12.780 2413
 12.785 2444
 12.790 2824
 12.795 2757
 12.800 2021
 12.805 1341
 12.810 876
 12.815 609
 12.820 456
 12.825 438
 12.830 393
 12.835 335
 12.840 298
 12.845 346
 12.850 312
 12.855 338
 12.860 289
 12.865 255
 12.870 272
 12.875 256
 12.880 249
 12.885 262
 12.890 224
 12.895 249
 12.900 264
 12.905 220
 12.910 265
 12.915 245
 12.920 244
 12.925 266
 12.930 225
 12.935 210
 12.940 238
 12.945 253
 12.950 240
 12.955 233
 12.960 238
 12.965 229
 12.970 236
 12.975 248
 12.980 224
 12.985 227
 12.990 234
 12.995 225
 13.000 233
 13.005 230
 13.010 229
 13.015 215
 13.020 226
 13.025 241
 13.030 221
 13.035 206
 13.040 208
 13.045 239
 13.050 216
 13.055 239
 13.060 222
 13.065 232
 13.070 238
 13.075 233
 13.080 221
 13.085 241
 13.090 251
 13.095 218
 13.100 264
 13.105 228
 13.110 213
 13.115 217
 13.120 217
 13.125 225
 13.130 238
 13.135 209
 13.140 238
 13.145 261
 13.150 225
 13.155 215
 13.160 244
 13.165 257
 13.170 259
 13.175 213
 13.180 239
 13.185 256
 13.190 294
 13.195 264
 13.200 275
 13.205 319
 13.210 363
 13.215 448
 13.220 610
 13.225 692
 13.230 765
 13.235 591
 13.240 539
 13.245 451
 13.250 433
 13.255 425
 13.260 467
 13.265 528
 13.270 619
 13.275 758
 13.280 930
 13.285 1333
 13.290 2009
 13.295 3247
 13.300 5604
 13.305 8773
 13.310 11294
 13.315 10310
 13.320 7013
 13.325 4099
 13.330 2408
 13.335 1597
 13.340 1152
 13.345 831
 13.350 682
 13.355 588
 13.360 454
 13.365 415
 13.370 438
 13.375 380
 13.380 334
 13.385 295
 13.390 312
 13.395 292
 13.400 289
 13.405 293
 13.410 297
 13.415 277
 13.420 270
 13.425 240
 13.430 281
 13.435 259
 13.440 297
 13.445 271
 13.450 276
 13.455 263
 13.460 284
 13.465 308
 13.470 351
 13.475 395
 13.480 515
 13.485 641
 13.490 738
 13.495 775
 13.500 807
 13.505 832
 13.510 574
 13.515 452
 13.520 337
 13.525 313
 13.530 326
 13.535 303
 13.540 312
 13.545 350
 13.550 332
 13.555 441
 13.560 517
 13.565 756
 13.570 1246
 13.575 1855
 13.580 2296
 13.585 2144
 13.590 1471
 13.595 901
 13.600 577
 13.605 428
 13.610 332
 13.615 326
 13.620 282
 13.625 269
 13.630 304
 13.635 272
 13.640 243
 13.645 277
 13.650 242
 13.655 236
 13.660 249
 13.665 251
 13.670 214
 13.675 222
 13.680 218
 13.685 216
 13.690 233
 13.695 225
 13.700 235
 13.705 238
 13.710 233
 13.715 217
 13.720 210
 13.725 237
 13.730 219
 13.735 235
 13.740 236
 13.745 230
 13.750 216
 13.755 218
 13.760 194
 13.765 216
 13.770 228
 13.775 217
 13.780 226
 13.785 223
 13.790 215
 13.795 236
 13.800 264
 13.805 288
 13.810 273
 13.815 256
 13.820 257
 13.825 253
 13.830 255
 13.835 248
 13.840 232
 13.845 275
 13.850 256
 13.855 262
 13.860 282
 13.865 298
 13.870 373
 13.875 466
 13.880 681
 13.885 1077
 13.890 1628
 13.895 2126
 13.900 1889
 13.905 1372
 13.910 777
 13.915 510
 13.920 405
 13.925 315
 13.930 296
 13.935 275
 13.940 252
 13.945 267
 13.950 225
 13.955 238
 13.960 236
 13.965 226
 13.970 223
 13.975 201
 13.980 265
 13.985 228
 13.990 229
 13.995 262
 14.000 231
 14.005 237
 14.010 224
 14.015 224
 14.020 225
 14.025 269
 14.030 297
 14.035 318
 14.040 260
 14.045 236
 14.050 222
 14.055 194
 14.060 234
 14.065 216
 14.070 261
 14.075 220
 14.080 192
 14.085 248
 14.090 212
 14.095 241
 14.100 238
 14.105 209
 14.110 210
 14.115 226
 14.120 237
 14.125 213
 14.130 219
 14.135 212
 14.140 207
 14.145 197
 14.150 216
 14.155 235
 14.160 216
 14.165 209
 14.170 220
 14.175 178
 14.180 231
 14.185 230
 14.190 223
 14.195 233
 14.200 223
 14.205 256
 14.210 268
 14.215 209
 14.220 231
 14.225 230
 14.230 241
 14.235 220
 14.240 254
 14.245 232
 14.250 228
 14.255 221
 14.260 253
 14.265 253
 14.270 263
 14.275 243
 14.280 282
 14.285 267
 14.290 266
 14.295 288
 14.300 319
 14.305 309
 14.310 330
 14.315 333
 14.320 325
 14.325 317
 14.330 384
 14.335 426
 14.340 457
 14.345 491
 14.350 605
 14.355 675
 14.360 835
 14.365 1153
 14.370 1823
 14.375 3002
 14.380 5630
 14.385 9001
 14.390 11758
 14.395 11263
 14.400 7632
 14.405 4556
 14.410 2479
 14.415 1412
 14.420 996
 14.425 830
 14.430 736
 14.435 669
 14.440 695
 14.445 799
 14.450 1058
 14.455 1325
 14.460 1416
 14.465 1215
 14.470 938
 14.475 654
 14.480 475
 14.485 429
 14.490 429
 14.495 429
 14.500 409
 14.505 420
 14.510 431
 14.515 451
 14.520 503
 14.525 528
 14.530 656
 14.535 893
 14.540 1149
 14.545 1364
 14.550 1427
 14.555 1521
 14.560 1711
 14.565 2668
 14.570 4206
 14.575 6548
 14.580 8241
 14.585 7514
 14.590 5440
 14.595 3271
 14.600 2202
 14.605 1748
 14.610 2032
 14.615 2885
 14.620 4694
 14.625 6916
 14.630 8846
 14.635 8051
 14.640 5885
 14.645 4157
 14.650 4004
 14.655 5220
 14.660 7097
 14.665 8109
 14.670 6882
 14.675 4508
 14.680 2754
 14.685 1863
 14.690 1556
 14.695 1211
 14.700 986
 14.705 773
 14.710 671
 14.715 609
 14.720 565
 14.725 545
 14.730 619
 14.735 682
 14.740 834
 14.745 1078
 14.750 1453
 14.755 1675
 14.760 1457
 14.765 1053
 14.770 655
 14.775 520
 14.780 383
 14.785 359
 14.790 307
 14.795 316
 14.800 286
 14.805 324
 14.810 293
 14.815 294
 14.820 243
 14.825 284
 14.830 272
 14.835 288
 14.840 297
 14.845 274
 14.850 292
 14.855 323
 14.860 397
 14.865 513
 14.870 673
 14.875 860
 14.880 862
 14.885 779
 14.890 552
 14.895 472
 14.900 490
 14.905 517
 14.910 733
 14.915 980
 14.920 1361
 14.925 1302
 14.930 1079
 14.935 735
 14.940 461
 14.945 359
 14.950 294
 14.955 276
 14.960 240
 14.965 248
 14.970 257
 14.975 248
 14.980 233
 14.985 207
 14.990 233
 14.995 240
 15.000 218
 15.005 207
 15.010 216
 15.015 227
 15.020 218
 15.025 234
 15.030 197
 15.035 194
 15.040 220
 15.045 233
 15.050 203
 15.055 210
 15.060 237
 15.065 252
 15.070 195
 15.075 222
 15.080 197
 15.085 206
 15.090 211
 15.095 193
 15.100 197
 15.105 206
 15.110 185
 15.115 187
 15.120 232
 15.125 214
 15.130 235
 15.135 225
 15.140 212
 15.145 222
 15.150 209
 15.155 232
 15.160 208
 15.165 174
 15.170 180
 15.175 190
 15.180 216
 15.185 205
 15.190 217
 15.195 202
 15.200 216
 15.205 180
 15.210 232
 15.215 206
 15.220 216
 15.225 192
 15.230 183
 15.235 205
 15.240 187
 15.245 182
 15.250 199
 15.255 202
 15.260 193
 15.265 232
 15.270 180
 15.275 211
 15.280 184
 15.285 224
 15.290 195
 15.295 192
 15.300 199
 15.305 187
 15.310 215
 15.315 210
 15.320 205
 15.325 201
 15.330 216
 15.335 196
 15.340 202
 15.345 212
 15.350 237
 15.355 213
 15.360 182
 15.365 205
 15.370 204
 15.375 203
 15.380 217
 15.385 202
 15.390 192
 15.395 236
 15.400 214
 15.405 182
 15.410 220
 15.415 207
 15.420 224
 15.425 202
 15.430 192
 15.435 205
 15.440 217
 15.445 204
 15.450 239
 15.455 239
 15.460 240
 15.465 223
 15.470 230
 15.475 228
 15.480 214
 15.485 237
 15.490 232
 15.495 234
 15.500 247
 15.505 290
 15.510 259
 15.515 286
 15.520 308
 15.525 348
 15.530 361
 15.535 332
 15.540 399
 15.545 437
 15.550 534
 15.555 667
 15.560 956
 15.565 1567
 15.570 2621
 15.575 4062
 15.580 5041
 15.585 4808
 15.590 3357
 15.595 2136
 15.600 1414
 15.605 1190
 15.610 1366
 15.615 2020
 15.620 3160
 15.625 4433
 15.630 4797
 15.635 3751
 15.640 2409
 15.645 1400
 15.650 852
 15.655 576
 15.660 497
 15.665 419
 15.670 373
 15.675 331
 15.680 338
 15.685 315
 15.690 262
 15.695 300
 15.700 273
 15.705 282
 15.710 271
 15.715 246
 15.720 211
 15.725 208
 15.730 231
 15.735 227
 15.740 247
 15.745 217
 15.750 247
 15.755 219
 15.760 228
 15.765 241
 15.770 233
 15.775 246
 15.780 271
 15.785 249
 15.790 244
 15.795 258
 15.800 329
 15.805 390
 15.810 542
 15.815 641
 15.820 706
 15.825 614
 15.830 459
 15.835 340
 15.840 281
 15.845 266
 15.850 241
 15.855 239
 15.860 250
 15.865 222
 15.870 231
 15.875 280
 15.880 315
 15.885 360
 15.890 504
 15.895 599
 15.900 705
 15.905 700
 15.910 498
 15.915 392
 15.920 310
 15.925 261
 15.930 239
 15.935 226
 15.940 217
 15.945 229
 15.950 201
 15.955 211
 15.960 211
 15.965 214
 15.970 189
 15.975 212
 15.980 217
 15.985 214
 15.990 212
 15.995 234
 16.000 200
 16.005 211
 16.010 212
 16.015 215
 16.020 240
 16.025 260
 16.030 254
 16.035 278
 16.040 324
 16.045 451
 16.050 571
 16.055 853
 16.060 1037
 16.065 878
 16.070 708
 16.075 554
 16.080 518
 16.085 585
 16.090 720
 16.095 815
 16.100 724
 16.105 531
 16.110 411
 16.115 303
 16.120 295
 16.125 301
 16.130 328
 16.135 399
 16.140 539
 16.145 767
 16.150 858
 16.155 800
 16.160 601
 16.165 410
 16.170 322
 16.175 276
 16.180 277
 16.185 277
 16.190 260
 16.195 265
 16.200 228
 16.205 244
 16.210 241
 16.215 280
 16.220 243
 16.225 253
 16.230 264
 16.235 285
 16.240 316
 16.245 303
 16.250 410
 16.255 576
 16.260 814
 16.265 1121
 16.270 1318
 16.275 1319
 16.280 1026
 16.285 828
 16.290 762
 16.295 969
 16.300 1426
 16.305 2340
 16.310 3481
 16.315 4346
 16.320 3754
 16.325 2702
 16.330 1593
 16.335 913
 16.340 588
 16.345 507
 16.350 368
 16.355 352
 16.360 330
 16.365 296
 16.370 287
 16.375 324
 16.380 260
 16.385 303
 16.390 362
 16.395 428
 16.400 563
 16.405 823
 16.410 958
 16.415 843
 16.420 633
 16.425 467
 16.430 332
 16.435 291
 16.440 239
 16.445 252
 16.450 240
 16.455 258
 16.460 199
 16.465 196
 16.470 196
 16.475 198
 16.480 205
 16.485 236
 16.490 191
 16.495 195
 16.500 197
 16.505 196
 16.510 206
 16.515 199
 16.520 194
 16.525 229
 16.530 218
 16.535 205
 16.540 201
 16.545 205
 16.550 219
 16.555 229
 16.560 244
 16.565 202
 16.570 234
 16.575 215
 16.580 240
 16.585 210
 16.590 233
 16.595 240
 16.600 234
 16.605 266
 16.610 290
 16.615 360
 16.620 471
 16.625 678
 16.630 895
 16.635 975
 16.640 790
 16.645 554
 16.650 385
 16.655 287
 16.660 239
 16.665 265
 16.670 256
 16.675 245
 16.680 228
 16.685 259
 16.690 202
 16.695 211
 16.700 214
 16.705 215
 16.710 217
 16.715 215
 16.720 220
 16.725 232
 16.730 234
 16.735 250
 16.740 222
 16.745 245
 16.750 204
 16.755 247
 16.760 254
 16.765 262
 16.770 241
 16.775 302
 16.780 275
 16.785 310
 16.790 358
 16.795 378
 16.800 487
 16.805 694
 16.810 1058
 16.815 1769
 16.820 2667
 16.825 3249
 16.830 3014
 16.835 2123
 16.840 1346
 16.845 860
 16.850 632
 16.855 578
 16.860 591
 16.865 737
 16.870 1130
 16.875 1790
 16.880 2514
 16.885 2864
 16.890 2630
 16.895 1701
 16.900 1116
 16.905 701
 16.910 500
 16.915 375
 16.920 324
 16.925 331
 16.930 357
 16.935 361
 16.940 386
 16.945 539
 16.950 690
 16.955 840
 16.960 829
 16.965 682
 16.970 486
 16.975 388
 16.980 302
 16.985 348
 16.990 314
 16.995 251
 17.000 270
 17.005 243
 17.010 251
 17.015 257
 17.020 259
 17.025 252
 17.030 280
 17.035 323
 17.040 447
 17.045 636
 17.050 680
 17.055 655
 17.060 551
 17.065 365
 17.070 294
 17.075 248
 17.080 255
 17.085 211
 17.090 234
 17.095 249
 17.100 246
 17.105 238
 17.110 238
 17.115 224
 17.120 204
 17.125 183
 17.130 206
 17.135 191
 17.140 169
 17.145 206
 17.150 211
 17.155 189
 17.160 196
 17.165 180
 17.170 189
 17.175 179
 17.180 193
 17.185 182
 17.190 195
 17.195 202
 17.200 215
 17.205 236
 17.210 272
 17.215 278
 17.220 251
 17.225 245
 17.230 183
 17.235 164
 17.240 211
 17.245 209
 17.250 202
 17.255 191
 17.260 224
 17.265 190
 17.270 196
 17.275 201
 17.280 191
 17.285 163
 17.290 205
 17.295 187
 17.300 212
 17.305 214
 17.310 226
 17.315 251
 17.320 268
 17.325 255
 17.330 234
 17.335 202
 17.340 204
 17.345 200
 17.350 215
 17.355 181
 17.360 192
 17.365 223
 17.370 224
 17.375 211
 17.380 225
 17.385 271
 17.390 264
 17.395 344
 17.400 437
 17.405 522
 17.410 610
 17.415 561
 17.420 584
 17.425 600
 17.430 692
 17.435 861
 17.440 836
 17.445 636
 17.450 460
 17.455 342
 17.460 326
 17.465 277
 17.470 306
 17.475 282
 17.480 229
 17.485 224
 17.490 221
 17.495 194
 17.500 231
 17.505 227
 17.510 211
 17.515 226
 17.520 272
 17.525 262
 17.530 199
 17.535 229
 17.540 192
 17.545 187
 17.550 195
 17.555 208
 17.560 200
 17.565 187
 17.570 224
 17.575 210
 17.580 213
 17.585 221
 17.590 200
 17.595 238
 17.600 244
 17.605 321
 17.610 344
 17.615 422
 17.620 453
 17.625 405
 17.630 354
 17.635 300
 17.640 262
 17.645 257
 17.650 311
 17.655 320
 17.660 386
 17.665 440
 17.670 384
 17.675 423
 17.680 311
 17.685 295
 17.690 260
 17.695 275
 17.700 331
 17.705 400
 17.710 589
 17.715 712
 17.720 849
 17.725 818
 17.730 561
 17.735 412
 17.740 306
 17.745 232
 17.750 256
 17.755 232
 17.760 234
 17.765 224
 17.770 240
 17.775 237
 17.780 235
 17.785 226
 17.790 209
 17.795 224
 17.800 250
 17.805 306
 17.810 363
 17.815 362
 17.820 330
 17.825 271
 17.830 221
 17.835 217
 17.840 173
 17.845 209
 17.850 186
 17.855 221
 17.860 186
 17.865 208
 17.870 217
 17.875 203
 17.880 208
 17.885 215
 17.890 205
 17.895 196
 17.900 174
 17.905 164
 17.910 172
 17.915 197
 17.920 182
 17.925 165
 17.930 171
 17.935 216
 17.940 186
 17.945 144
 17.950 170
 17.955 166
 17.960 186
 17.965 179
 17.970 168
 17.975 201
 17.980 201
 17.985 153
 17.990 202
 17.995 172
 18.000 179
 18.005 191
 18.010 205
 18.015 173
 18.020 191
 18.025 170
 18.030 192
 18.035 193
 18.040 223
 18.045 202
 18.050 229
 18.055 328
 18.060 359
 18.065 498
 18.070 599
 18.075 561
 18.080 461
 18.085 321
 18.090 262
 18.095 232
 18.100 193
 18.105 218
 18.110 177
 18.115 190
 18.120 210
 18.125 194
 18.130 172
 18.135 181
 18.140 199
 18.145 206
 18.150 194
 18.155 193
 18.160 186
 18.165 153
 18.170 204
 18.175 192
 18.180 179
 18.185 183
 18.190 175
 18.195 164
 18.200 184
 18.205 166
 18.210 171
 18.215 192
 18.220 185
 18.225 196
 18.230 185
 18.235 184
 18.240 210
 18.245 211
 18.250 223
 18.255 223
 18.260 223
 18.265 237
 18.270 307
 18.275 362
 18.280 441
 18.285 435
 18.290 420
 18.295 359
 18.300 335
 18.305 279
 18.310 276
 18.315 243
 18.320 242
 18.325 204
 18.330 207
 18.335 209
 18.340 233
 18.345 188
 18.350 190
 18.355 211
 18.360 234
 18.365 291
 18.370 314
 18.375 373
 18.380 378
 18.385 303
 18.390 261
 18.395 231
 18.400 233
 18.405 189
 18.410 185
 18.415 187
 18.420 233
 18.425 199
 18.430 241
 18.435 231
 18.440 307
 18.445 328
 18.450 349
 18.455 348
 18.460 330
 18.465 262
 18.470 238
 18.475 191
 18.480 186
 18.485 184
 18.490 189
 18.495 179
 18.500 190
 18.505 177
 18.510 158
 18.515 189
 18.520 176
 18.525 171
 18.530 169
 18.535 195
 18.540 161
 18.545 184
 18.550 203
 18.555 179
 18.560 189
 18.565 204
 18.570 214
 18.575 220
 18.580 221
 18.585 191
 18.590 196
 18.595 186
 18.600 201
 18.605 206
 18.610 172
 18.615 201
 18.620 179
 18.625 197
 18.630 171
 18.635 184
 18.640 192
 18.645 196
 18.650 215
 18.655 192
 18.660 202
 18.665 212
 18.670 195
 18.675 229
 18.680 244
 18.685 240
 18.690 219
 18.695 200
 18.700 230
 18.705 168
 18.710 184
 18.715 188
 18.720 186
 18.725 194
 18.730 194
 18.735 234
 18.740 256
 18.745 310
 18.750 331
 18.755 344
 18.760 263
 18.765 243
 18.770 207
 18.775 165
 18.780 168
 18.785 196
 18.790 199
 18.795 190
 18.800 188
 18.805 193
 18.810 237
 18.815 260
 18.820 280
 18.825 278
 18.830 299
 18.835 318
 18.840 303
 18.845 313
 18.850 289
 18.855 251
 18.860 208
 18.865 201
 18.870 172
 18.875 182
 18.880 184
 18.885 216
 18.890 220
 18.895 216
 18.900 250
 18.905 222
 18.910 209
 18.915 215
 18.920 188
 18.925 242
 18.930 187
 18.935 194
 18.940 185
 18.945 177
 18.950 195
 18.955 186
 18.960 177
 18.965 182
 18.970 188
 18.975 183
 18.980 185
 18.985 185
 18.990 206
 18.995 226
 19.000 198
 19.005 247
 19.010 226
 19.015 213
 19.020 186
 19.025 164
 19.030 191
 19.035 178
 19.040 188
 19.045 164
 19.050 172
 19.055 156
 19.060 181
 19.065 170
 19.070 164
 19.075 184
 19.080 168
 19.085 162
 19.090 180
 19.095 186
 19.100 177
 19.105 159
 19.110 186
 19.115 169
 19.120 171
 19.125 168
 19.130 191
 19.135 161
 19.140 188
 19.145 194
 19.150 187
 19.155 179
 19.160 178
 19.165 186
 19.170 169
 19.175 187
 19.180 171
 19.185 187
 19.190 172
 19.195 163
 19.200 196
 19.205 177
 19.210 204
 19.215 205
 19.220 255
 19.225 231
 19.230 240
 19.235 246
 19.240 232
 19.245 257
 19.250 222
 19.255 247
 19.260 206
 19.265 228
 19.270 207
 19.275 309
 19.280 307
 19.285 382
 19.290 365
 19.295 353
 19.300 294
 19.305 253
 19.310 246
 19.315 233
 19.320 196
 19.325 186
 19.330 196
 19.335 194
 19.340 212
 19.345 203
 19.350 186
 19.355 194
 19.360 204
 19.365 183
 19.370 178
 19.375 176
 19.380 187
 19.385 192
 19.390 181
 19.395 185
 19.400 182
 19.405 196
 19.410 186
 19.415 192
 19.420 192
 19.425 169
 19.430 195
 19.435 185
 19.440 181
 19.445 191
 19.450 192
 19.455 167
 19.460 195
 19.465 183
 19.470 172
 19.475 188
 19.480 197
 19.485 183
 19.490 176
 19.495 186
 19.500 171
 19.505 176
 19.510 169
 19.515 177
 19.520 163
 19.525 164
 19.530 196
 19.535 208
 19.540 191
 19.545 182
 19.550 204
 19.555 190
 19.560 197
 19.565 181
 19.570 186
 19.575 209
 19.580 183
 19.585 194
 19.590 210
 19.595 191
 19.600 212
 19.605 237
 19.610 246
 19.615 280
 19.620 340
 19.625 455
 19.630 612
 19.635 792
 19.640 861
 19.645 728
 19.650 572
 19.655 437
 19.660 351
 19.665 409
 19.670 497
 19.675 613
 19.680 693
 19.685 598
 19.690 487
 19.695 367
 19.700 322
 19.705 320
 19.710 324
 19.715 392
 19.720 353
 19.725 368
 19.730 323
 19.735 297
 19.740 287
 19.745 249
 19.750 266
 19.755 238
 19.760 253
 19.765 299
 19.770 285
 19.775 339
 19.780 379
 19.785 393
 19.790 504
 19.795 655
 19.800 918
 19.805 1382
 19.810 1995
 19.815 2636
 19.820 2899
 19.825 2426
 19.830 1823
 19.835 1133
 19.840 715
 19.845 505
 19.850 408
 19.855 348
 19.860 328
 19.865 315
 19.870 266
 19.875 300
 19.880 296
 19.885 339
 19.890 335
 19.895 303
 19.900 300
 19.905 352
 19.910 396
 19.915 409
 19.920 453
 19.925 586
 19.930 810
 19.935 1178
 19.940 1850
 19.945 2739
 19.950 3365
 19.955 3297
 19.960 3446
 19.965 3587
 19.970 4335
 19.975 4872
 19.980 4408
 19.985 3161
 19.990 1864
 19.995 1143
 20.000 738
 20.005 621
 20.010 499
 20.015 483
 20.020 568
 20.025 651
 20.030 811
 20.035 914
 20.040 781
 20.045 670
 20.050 530
 20.055 386
 20.060 344
 20.065 284
 20.070 277
 20.075 293
 20.080 259
 20.085 266
 20.090 265
 20.095 235
 20.100 233
 20.105 212
 20.110 241
 20.115 230
 20.120 245
 20.125 223
 20.130 235
 20.135 227
 20.140 262
 20.145 265
 20.150 259
 20.155 262
 20.160 250
 20.165 284
 20.170 318
 20.175 354
 20.180 353
 20.185 387
 20.190 490
 20.195 592
 20.200 889
 20.205 1321
 20.210 2179
 20.215 3667
 20.220 5236
 20.225 6038
 20.230 5283
 20.235 3554
 20.240 2147
 20.245 1290
 20.250 807
 20.255 597
 20.260 466
 20.265 379
 20.270 345
 20.275 313
 20.280 309
 20.285 285
 20.290 269
 20.295 245
 20.300 238
 20.305 233
 20.310 224
 20.315 217
 20.320 213
 20.325 214
 20.330 209
 20.335 200
 20.340 211
 20.345 225
 20.350 190
 20.355 220
 20.360 266
 20.365 307
 20.370 332
 20.375 293
 20.380 265
 20.385 228
 20.390 236
 20.395 238
 20.400 219
 20.405 261
 20.410 295
 20.415 363
 20.420 415
 20.425 444
 20.430 401
 20.435 283
 20.440 257
 20.445 203
 20.450 259
 20.455 205
 20.460 171
 20.465 207
 20.470 209
 20.475 200
 20.480 220
 20.485 207
 20.490 204
 20.495 213
 20.500 177
 20.505 198
 20.510 203
 20.515 197
 20.520 210
 20.525 189
 20.530 214
 20.535 221
 20.540 204
 20.545 253
 20.550 248
 20.555 282
 20.560 313
 20.565 412
 20.570 628
 20.575 905
 20.580 1286
 20.585 1477
 20.590 1310
 20.595 979
 20.600 680
 20.605 450
 20.610 331
 20.615 281
 20.620 247
 20.625 222
 20.630 222
 20.635 204
 20.640 214
 20.645 231
 20.650 191
 20.655 260
 20.660 257
 20.665 302
 20.670 408
 20.675 475
 20.680 465
 20.685 463
 20.690 449
 20.695 441
 20.700 491
 20.705 516
 20.710 420
 20.715 333
 20.720 301
 20.725 295
 20.730 245
 20.735 208
 20.740 217
 20.745 234
 20.750 189
 20.755 190
 20.760 200
 20.765 170
 20.770 203
 20.775 202
 20.780 182
 20.785 215
 20.790 176
 20.795 170
 20.800 174
 20.805 207
 20.810 179
 20.815 173
 20.820 196
 20.825 185
 20.830 184
 20.835 200
 20.840 268
 20.845 251
 20.850 295
 20.855 348
 20.860 354
 20.865 393
 20.870 458
 20.875 543
 20.880 479
 20.885 413
 20.890 322
 20.895 257
 20.900 192
 20.905 205
 20.910 192
 20.915 201
 20.920 184
 20.925 201
 20.930 190
 20.935 190
 20.940 178
 20.945 180
 20.950 172
 20.955 164
 20.960 189
 20.965 182
 20.970 196
 20.975 215
 20.980 236
 20.985 286
 20.990 315
 20.995 423
 21.000 483
 21.005 458
 21.010 352
 21.015 323
 21.020 241
 21.025 251
 21.030 225
 21.035 186
 21.040 216
 21.045 178
 21.050 223
 21.055 195
 21.060 221
 21.065 188
 21.070 214
 21.075 192
 21.080 233
 21.085 222
 21.090 251
 21.095 273
 21.100 334
 21.105 436
 21.110 574
 21.115 809
 21.120 1024
 21.125 871
 21.130 685
 21.135 536
 21.140 453
 21.145 443
 21.150 369
 21.155 325
 21.160 281
 21.165 247
 21.170 182
 21.175 213
 21.180 196
 21.185 202
 21.190 221
 21.195 222
 21.200 193
 21.205 234
 21.210 222
 21.215 282
 21.220 311
 21.225 412
 21.230 537
 21.235 668
 21.240 701
 21.245 632
 21.250 481
 21.255 374
 21.260 317
 21.265 247
 21.270 250
 21.275 303
 21.280 355
 21.285 433
 21.290 553
 21.295 589
 21.300 477
 21.305 409
 21.310 289
 21.315 251
 21.320 216
 21.325 208
 21.330 224
 21.335 234
 21.340 259
 21.345 267
 21.350 285
 21.355 254
 21.360 216
 21.365 205
 21.370 209
 21.375 206
 21.380 196
 21.385 198
 21.390 180
 21.395 209
 21.400 228
 21.405 196
 21.410 202
 21.415 193
 21.420 187
 21.425 201
 21.430 210
 21.435 205
 21.440 193
 21.445 227
 21.450 228
 21.455 217
 21.460 272
 21.465 355
 21.470 476
 21.475 612
 21.480 847
 21.485 789
 21.490 756
 21.495 588
 21.500 377
 21.505 387
 21.510 384
 21.515 397
 21.520 468
 21.525 582
 21.530 596
 21.535 505
 21.540 427
 21.545 338
 21.550 295
 21.555 264
 21.560 259
 21.565 260
 21.570 296
 21.575 308
 21.580 339
 21.585 410
 21.590 537
 21.595 711
 21.600 1049
 21.605 1515
 21.610 1973
 21.615 2400
 21.620 2319
 21.625 1961
 21.630 1469
 21.635 1056
 21.640 846
 21.645 891
 21.650 1086
 21.655 1183
 21.660 1253
 21.665 1065
 21.670 798
 21.675 622
 21.680 525
 21.685 547
 21.690 611
 21.695 812
 21.700 932
 21.705 966
 21.710 872
 21.715 708
 21.720 733
 21.725 793
 21.730 1101
 21.735 1748
 21.740 2764
 21.745 4148
 21.750 5137
 21.755 4942
 21.760 3746
 21.765 2472
 21.770 1558
 21.775 1138
 21.780 1002
 21.785 891
 21.790 796
 21.795 701
 21.800 630
 21.805 553
 21.810 514
 21.815 571
 21.820 514
 21.825 499
 21.830 413
 21.835 437
 21.840 490
 21.845 460
 21.850 556
 21.855 619
 21.860 820
 21.865 1204
 21.870 1768
 21.875 3017
 21.880 4754
 21.885 6822
 21.890 7951
 21.895 6907
 21.900 4936
 21.905 2921
 21.910 1744
 21.915 1055
 21.920 754
 21.925 568
 21.930 507
 21.935 444
 21.940 385
 21.945 347
 21.950 339
 21.955 309
 21.960 320
 21.965 288
 21.970 297
 21.975 261
 21.980 305
 21.985 320
 21.990 347
 21.995 397
 22.000 463
 22.005 561
 22.010 550
 22.015 451
 22.020 398
 22.025 310
 22.030 303
 22.035 244
 22.040 234
 22.045 250
 22.050 305
 22.055 304
 22.060 378
 22.065 462
 22.070 530
 22.075 512
 22.080 438
 22.085 409
 22.090 454
 22.095 444
 22.100 488
 22.105 416
 22.110 325
 22.115 260
 22.120 246
 22.125 229
 22.130 223
 22.135 218
 22.140 228
 22.145 238
 22.150 219
 22.155 271
 22.160 256
 22.165 254
 22.170 296
 22.175 350
 22.180 395
 22.185 366
 22.190 394
 22.195 307
 22.200 334
 22.205 334
 22.210 426
 22.215 617
 22.220 758
 22.225 834
 22.230 790
 22.235 641
 22.240 475
 22.245 435
 22.250 389
 22.255 413
 22.260 439
 22.265 603
 22.270 879
 22.275 1179
 22.280 1626
 22.285 1948
 22.290 1752
 22.295 1353
 22.300 976
 22.305 689
 22.310 474
 22.315 389
 22.320 311
 22.325 273
 22.330 262
 22.335 292
 22.340 255
 22.345 284
 22.350 263
 22.355 258
 22.360 278
 22.365 306
 22.370 342
 22.375 411
 22.380 459
 22.385 480
 22.390 412
 22.395 389
 22.400 368
 22.405 390
 22.410 384
 22.415 430
 22.420 491
 22.425 682
 22.430 900
 22.435 1381
 22.440 2143
 22.445 2954
 22.450 3412
 22.455 3097
 22.460 2568
 22.465 2098
 22.470 2204
 22.475 2610
 22.480 2934
 22.485 2758
 22.490 2352
 22.495 2071
 22.500 2001
 22.505 1920
 22.510 1686
 22.515 1322
 22.520 1005
 22.525 716
 22.530 589
 22.535 589
 22.540 650
 22.545 666
 22.550 775
 22.555 1047
 22.560 1613
 22.565 2615
 22.570 4228
 22.575 5929
 22.580 6971
 22.585 6169
 22.590 4312
 22.595 2756
 22.600 1701
 22.605 1168
 22.610 862
 22.615 626
 22.620 506
 22.625 448
 22.630 389
 22.635 304
 22.640 324
 22.645 315
 22.650 291
 22.655 273
 22.660 263
 22.665 253
 22.670 265
 22.675 239
 22.680 216
 22.685 235
 22.690 234
 22.695 225
 22.700 250
 22.705 221
 22.710 214
 22.715 221
 22.720 222
 22.725 224
 22.730 225
 22.735 232
 22.740 234
 22.745 224
 22.750 239
 22.755 271
 22.760 252
 22.765 317
 22.770 382
 22.775 519
 22.780 596
 22.785 718
 22.790 703
 22.795 591
 22.800 452
 22.805 405
 22.810 363
 22.815 363
 22.820 344
 22.825 400
 22.830 511
 22.835 655
 22.840 1132
 22.845 1698
 22.850 2391
 22.855 2816
 22.860 2552
 22.865 1952
 22.870 1263
 22.875 1023
 22.880 870
 22.885 945
 22.890 1139
 22.895 1080
 22.900 1104
 22.905 847
 22.910 587
 22.915 436
 22.920 319
 22.925 312
 22.930 258
 22.935 286
 22.940 277
 22.945 287
 22.950 343
 22.955 462
 22.960 564
 22.965 666
 22.970 664
 22.975 546
 22.980 434
 22.985 332
 22.990 272
 22.995 233
 23.000 231
 23.005 215
 23.010 197
 23.015 199
 23.020 211
 23.025 198
 23.030 181
 23.035 192
 23.040 177
 23.045 190
 23.050 207
 23.055 204
 23.060 228
 23.065 192
 23.070 205
 23.075 215
 23.080 249
 23.085 224
 23.090 274
 23.095 330
 23.100 473
 23.105 650
 23.110 762
 23.115 887
 23.120 793
 23.125 623
 23.130 536
 23.135 337
 23.140 349
 23.145 269
 23.150 280
 23.155 274
 23.160 316
 23.165 325
 23.170 340
 23.175 332
 23.180 264
 23.185 260
 23.190 254
 23.195 263
 23.200 343
 23.205 439
 23.210 586
 23.215 807
 23.220 854
 23.225 873
 23.230 630
 23.235 468
 23.240 368
 23.245 286
 23.250 227
 23.255 253
 23.260 255
 23.265 263
 23.270 273
 23.275 256
 23.280 235
 23.285 219
 23.290 229
 23.295 211
 23.300 216
 23.305 224
 23.310 248
 23.315 237
 23.320 259
 23.325 286
 23.330 301
 23.335 300
 23.340 381
 23.345 516
 23.350 667
 23.355 1066
 23.360 1666
 23.365 2324
 23.370 2704
 23.375 2829
 23.380 2355
 23.385 1709
 23.390 1281
 23.395 853
 23.400 563
 23.405 450
 23.410 368
 23.415 330
 23.420 328
 23.425 310
 23.430 327
 23.435 317
 23.440 366
 23.445 477
 23.450 639
 23.455 815
 23.460 944
 23.465 998
 23.470 812
 23.475 623
 23.480 460
 23.485 323
 23.490 270
 23.495 265
 23.500 228
 23.505 232
 23.510 251
 23.515 229
 23.520 204
 23.525 217
 23.530 211
 23.535 244
 23.540 243
 23.545 220
 23.550 210
 23.555 245
 23.560 238
 23.565 248
 23.570 254
 23.575 266
 23.580 324
 23.585 417
 23.590 507
 23.595 760
 23.600 1021
 23.605 1193
 23.610 1248
 23.615 1015
 23.620 843
 23.625 629
 23.630 609
 23.635 647
 23.640 685
 23.645 723
 23.650 697
 23.655 658
 23.660 587
 23.665 557
 23.670 646
 23.675 911
 23.680 1305
 23.685 1782
 23.690 2223
 23.695 2260
 23.700 1961
 23.705 1803
 23.710 1907
 23.715 2596
 23.720 3361
 23.725 3288
 23.730 2765
 23.735 2035
 23.740 1417
 23.745 988
 23.750 752
 23.755 647
 23.760 639
 23.765 717
 23.770 946
 23.775 1127
 23.780 1226
 23.785 1176
 23.790 1295
 23.795 1439
 23.800 2004
 23.805 2588
 23.810 2822
 23.815 2561
 23.820 1970
 23.825 1190
 23.830 849
 23.835 582
 23.840 433
 23.845 361
 23.850 325
 23.855 288
 23.860 290
 23.865 276
 23.870 259
 23.875 246
 23.880 251
 23.885 232
 23.890 278
 23.895 257
 23.900 243
 23.905 271
 23.910 276
 23.915 222
 23.920 228
 23.925 202
 23.930 220
 23.935 242
 23.940 286
 23.945 300
 23.950 311
 23.955 316
 23.960 336
 23.965 284
 23.970 316
 23.975 272
 23.980 259
 23.985 270
 23.990 259
 23.995 296
 24.000 311
 24.005 405
 24.010 454
 24.015 477
 24.020 497
 24.025 489
 24.030 569
 24.035 557
 24.040 599
 24.045 533
 24.050 540
 24.055 504
 24.060 521
 24.065 659
 24.070 1097
 24.075 1680
 24.080 2451
 24.085 3371
 24.090 3739
 24.095 3188
 24.100 2577
 24.105 1871
 24.110 1206
 24.115 789
 24.120 573
 24.125 460
 24.130 411
 24.135 329
 24.140 317
 24.145 314
 24.150 359
 24.155 317
 24.160 327
 24.165 286
 24.170 265
 24.175 223
 24.180 216
 24.185 188
 24.190 238
 24.195 212
 24.200 204
 24.205 206
 24.210 194
 24.215 206
 24.220 230
 24.225 237
 24.230 265
 24.235 290
 24.240 460
 24.245 481
 24.250 519
 24.255 510
 24.260 421
 24.265 335
 24.270 271
 24.275 192
 24.280 209
 24.285 199
 24.290 197
 24.295 217
 24.300 196
 24.305 186
 24.310 205
 24.315 249
 24.320 266
 24.325 264
 24.330 257
 24.335 312
 24.340 268
 24.345 333
 24.350 396
 24.355 474
 24.360 535
 24.365 509
 24.370 483
 24.375 461
 24.380 491
 24.385 500
 24.390 559
 24.395 632
 24.400 590
 24.405 602
 24.410 544
 24.415 639
 24.420 728
 24.425 876
 24.430 1069
 24.435 1047
 24.440 810
 24.445 648
 24.450 502
 24.455 397
 24.460 384
 24.465 381
 24.470 377
 24.475 416
 24.480 422
 24.485 431
 24.490 376
 24.495 400
 24.500 456
 24.505 614
 24.510 950
 24.515 1227
 24.520 1700
 24.525 1682
 24.530 1408
 24.535 996
 24.540 698
 24.545 554
 24.550 375
 24.555 330
 24.560 310
 24.565 337
 24.570 356
 24.575 280
 24.580 370
 24.585 367
 24.590 473
 24.595 702
 24.600 918
 24.605 1306
 24.610 1437
 24.615 1337
 24.620 986
 24.625 711
 24.630 469
 24.635 436
 24.640 333
 24.645 330
 24.650 307
 24.655 378
 24.660 371
 24.665 479
 24.670 687
 24.675 964
 24.680 1252
 24.685 1223
 24.690 1070
 24.695 886
 24.700 753
 24.705 833
 24.710 968
 24.715 949
 24.720 751
 24.725 613
 24.730 432
 24.735 464
 24.740 465
 24.745 514
 24.750 634
 24.755 710
 24.760 676
 24.765 584
 24.770 472
 24.775 358
 24.780 316
 24.785 330
 24.790 335
 24.795 349
 24.800 383
 24.805 349
 24.810 335
 24.815 281
 24.820 280
 24.825 273
 24.830 258
 24.835 266
 24.840 296
 24.845 280
 24.850 355
 24.855 396
 24.860 496
 24.865 711
 24.870 999
 24.875 1556
 24.880 2356
 24.885 3088
 24.890 3396
 24.895 2834
 24.900 1927
 24.905 1225
 24.910 789
 24.915 523
 24.920 436
 24.925 317
 24.930 317
 24.935 328
 24.940 316
 24.945 266
 24.950 253
 24.955 260
 24.960 263
 24.965 306
 24.970 304
 24.975 373
 24.980 437
 24.985 521
 24.990 488
 24.995 437
 25.000 379
 25.005 391
 25.010 411
 25.015 432
 25.020 467
 25.025 378
 25.030 319
 25.035 352
 25.040 359
 25.045 373
 25.050 392
 25.055 325
 25.060 301
 25.065 289
 25.070 308
 25.075 292
 25.080 305
 25.085 325
 25.090 378
 25.095 507
 25.100 659
 25.105 1045
 25.110 1294
 25.115 1477
 25.120 1257
 25.125 981
 25.130 653
 25.135 422
 25.140 335
 25.145 307
 25.150 286
 25.155 262
 25.160 252
 25.165 286
 25.170 318
 25.175 316
 25.180 386
 25.185 506
 25.190 699
 25.195 754
 25.200 760
 25.205 730
 25.210 802
 25.215 888
 25.220 1038
 25.225 1096
 25.230 1046
 25.235 938
 25.240 832
 25.245 671
 25.250 557
 25.255 524
 25.260 540
 25.265 554
 25.270 549
 25.275 538
 25.280 625
 25.285 722
 25.290 859
 25.295 865
 25.300 732
 25.305 590
 25.310 560
 25.315 498
 25.320 468
 25.325 432
 25.330 457
 25.335 381
 25.340 410
 25.345 424
 25.350 573
 25.355 626
 25.360 605
 25.365 609
 25.370 671
 25.375 741
 25.380 961
 25.385 1259
 25.390 1471
 25.395 1634
 25.400 1552
 25.405 1310
 25.410 862
 25.415 628
 25.420 459
 25.425 390
 25.430 334
 25.435 353
 25.440 371
 25.445 471
 25.450 665
 25.455 815
 25.460 1035
 25.465 1166
 25.470 925
 25.475 718
 25.480 548
 25.485 506
 25.490 477
 25.495 459
 25.500 645
 25.505 988
 25.510 1425
 25.515 1982
 25.520 2285
 25.525 2168
 25.530 1634
 25.535 1135
 25.540 772
 25.545 512
 25.550 417
 25.555 370
 25.560 321
 25.565 258
 25.570 280
 25.575 294
 25.580 247
 25.585 276
 25.590 294
 25.595 288
 25.600 331
 25.605 360
 25.610 332
 25.615 447
 25.620 514
 25.625 659
 25.630 806
 25.635 850
 25.640 891
 25.645 1017
 25.650 1277
 25.655 1761
 25.660 2415
 25.665 3100
 25.670 3068
 25.675 2545
 25.680 1839
 25.685 1267
 25.690 851
 25.695 705
 25.700 704
 25.705 764
 25.710 972
 25.715 1124
 25.720 1298
 25.725 1271
 25.730 1094
 25.735 920
 25.740 899
 25.745 892
 25.750 800
 25.755 686
 25.760 498
 25.765 393
 25.770 343
 25.775 294
 25.780 263
 25.785 318
 25.790 318
 25.795 292
 25.800 352
 25.805 346
 25.810 363
 25.815 467
 25.820 611
 25.825 850
 25.830 1058
 25.835 1170
 25.840 1081
 25.845 840
 25.850 687
 25.855 631
 25.860 662
 25.865 874
 25.870 1234
 25.875 1705
 25.880 2156
 25.885 2279
 25.890 2039
 25.895 1740
 25.900 1571
 25.905 1379
 25.910 1209
 25.915 848
 25.920 621
 25.925 418
 25.930 337
 25.935 290
 25.940 284
 25.945 260
 25.950 227
 25.955 238
 25.960 222
 25.965 209
 25.970 210
 25.975 187
 25.980 194
 25.985 190
 25.990 228
 25.995 224
 26.000 198
 26.005 206
 26.010 235
 26.015 256
 26.020 261
 26.025 290
 26.030 279
 26.035 306
 26.040 264
 26.045 265
 26.050 329
 26.055 357
 26.060 482
 26.065 584
 26.070 693
 26.075 684
 26.080 579
 26.085 441
 26.090 342
 26.095 272
 26.100 226
 26.105 201
 26.110 196
 26.115 230
 26.120 215
 26.125 230
 26.130 208
 26.135 224
 26.140 245
 26.145 268
 26.150 301
 26.155 316
 26.160 298
 26.165 293
 26.170 267
 26.175 241
 26.180 194
 26.185 214
 26.190 202
 26.195 203
 26.200 194
 26.205 238
 26.210 247
 26.215 287
 26.220 268
 26.225 281
 26.230 251
 26.235 301
 26.240 315
 26.245 395
 26.250 463
 26.255 458
 26.260 424
 26.265 360
 26.270 290
 26.275 231
 26.280 233
 26.285 231
 26.290 241
 26.295 268
 26.300 301
 26.305 312
 26.310 342
 26.315 366
 26.320 416
 26.325 484
 26.330 574
 26.335 657
 26.340 727
 26.345 793
 26.350 783
 26.355 714
 26.360 662
 26.365 672
 26.370 581
 26.375 447
 26.380 358
 26.385 300
 26.390 262
 26.395 255
 26.400 212
 26.405 198
 26.410 195
 26.415 210
 26.420 206
 26.425 213
 26.430 219
 26.435 237
 26.440 284
 26.445 315
 26.450 418
 26.455 537
 26.460 645
 26.465 645
 26.470 546
 26.475 488
 26.480 440
 26.485 449
 26.490 554
 26.495 586
 26.500 611
 26.505 556
 26.510 422
 26.515 349
 26.520 270
 26.525 284
 26.530 257
 26.535 291
 26.540 355
 26.545 452
 26.550 609
 26.555 712
 26.560 702
 26.565 630
 26.570 475
 26.575 418
 26.580 403
 26.585 420
 26.590 489
 26.595 533
 26.600 487
 26.605 410
 26.610 329
 26.615 305
 26.620 234
 26.625 240
 26.630 240
 26.635 243
 26.640 213
 26.645 205
 26.650 194
 26.655 202
 26.660 214
 26.665 207
 26.670 200
 26.675 210
 26.680 258
 26.685 306
 26.690 379
 26.695 393
 26.700 333
 26.705 327
 26.710 272
 26.715 244
 26.720 265
 26.725 233
 26.730 243
 26.735 258
 26.740 326
 26.745 402
 26.750 512
 26.755 724
 26.760 1017
 26.765 1345
 26.770 1304
 26.775 1158
 26.780 901
 26.785 732
 26.790 675
 26.795 689
 26.800 661
 26.805 619
 26.810 579
 26.815 480
 26.820 414
 26.825 443
 26.830 473
 26.835 494
 26.840 583
 26.845 582
 26.850 515
 26.855 494
 26.860 391
 26.865 308
 26.870 277
 26.875 245
 26.880 228
 26.885 213
 26.890 210
 26.895 209
 26.900 208
 26.905 220
 26.910 213
 26.915 215
 26.920 215
 26.925 229
 26.930 215
 26.935 248
 26.940 272
 26.945 289
 26.950 326
 26.955 474
 26.960 701
 26.965 882
 26.970 1168
 26.975 1377
 26.980 1407
 26.985 1292
 26.990 1071
 26.995 764
 27.000 505
 27.005 392
 27.010 282
 27.015 281
 27.020 294
 27.025 258
 27.030 298
 27.035 334
 27.040 327
 27.045 338
 27.050 288
 27.055 246
 27.060 221
 27.065 245
 27.070 231
 27.075 267
 27.080 333
 27.085 390
 27.090 428
 27.095 483
 27.100 467
 27.105 372
 27.110 320
 27.115 261
 27.120 237
 27.125 267
 27.130 317
 27.135 411
 27.140 555
 27.145 709
 27.150 905
 27.155 951
 27.160 731
 27.165 583
 27.170 400
 27.175 311
 27.180 252
 27.185 249
 27.190 236
 27.195 222
 27.200 206
 27.205 188
 27.210 208
 27.215 189
 27.220 169
 27.225 184
 27.230 179
 27.235 186
 27.240 211
 27.245 214
 27.250 206
 27.255 226
 27.260 246
 27.265 327
 27.270 443
 27.275 587
 27.280 712
 27.285 745
 27.290 612
 27.295 437
 27.300 324
 27.305 286
 27.310 252
 27.315 220
 27.320 206
 27.325 175
 27.330 182
 27.335 192
 27.340 240
 27.345 254
 27.350 276
 27.355 327
 27.360 310
 27.365 252
 27.370 234
 27.375 193
 27.380 188
 27.385 200
 27.390 166
 27.395 129
 27.400 146
 27.405 159
 27.410 175
 27.415 176
 27.420 151
 27.425 180
 27.430 178
 27.435 160
 27.440 144
 27.445 162
 27.450 184
 27.455 164
 27.460 171
 27.465 220
 27.470 263
 27.475 252
 27.480 277
 27.485 283
 27.490 307
 27.495 277
 27.500 285
 27.505 243
 27.510 237
 27.515 207
 27.520 234
 27.525 218
 27.530 239
 27.535 226
 27.540 208
 27.545 208
 27.550 199
 27.555 181
 27.560 184
 27.565 204
 27.570 181
 27.575 195
 27.580 260
 27.585 282
 27.590 348
 27.595 463
 27.600 564
 27.605 614
 27.610 492
 27.615 374
 27.620 322
 27.625 292
 27.630 208
 27.635 209
 27.640 179
 27.645 170
 27.650 193
 27.655 165
 27.660 171
 27.665 178
 27.670 192
 27.675 204
 27.680 191
 27.685 236
 27.690 262
 27.695 293
 27.700 360
 27.705 430
 27.710 558
 27.715 573
 27.720 596
 27.725 519
 27.730 516
 27.735 529
 27.740 570
 27.745 611
 27.750 642
 27.755 668
 27.760 642
 27.765 535
 27.770 481
 27.775 408
 27.780 359
 27.785 270
 27.790 246
 27.795 213
 27.800 248
 27.805 263
 27.810 235
 27.815 258
 27.820 287
 27.825 327
 27.830 467
 27.835 552
 27.840 775
 27.845 972
 27.850 1077
 27.855 1153
 27.860 1035
 27.865 972
 27.870 973
 27.875 1046
 27.880 893
 27.885 719
 27.890 530
 27.895 490
 27.900 430
 27.905 392
 27.910 420
 27.915 384
 27.920 416
 27.925 462
 27.930 549
 27.935 660
 27.940 677
 27.945 660
 27.950 539
 27.955 435
 27.960 398
 27.965 422
 27.970 496
 27.975 540
 27.980 567
 27.985 712
 27.990 831
 27.995 801
 28.000 774
 28.005 665
 28.010 510
 28.015 396
 28.020 343
 28.025 368
 28.030 366
 28.035 447
 28.040 491
 28.045 497
 28.050 504
 28.055 416
 28.060 400
 28.065 423
 28.070 415
 28.075 526
 28.080 591
 28.085 522
 28.090 445
 28.095 418
 28.100 298
 28.105 302
 28.110 304
 28.115 358
 28.120 375
 28.125 400
 28.130 385
 28.135 397
 28.140 361
 28.145 278
 28.150 263
 28.155 294
 28.160 341
 28.165 436
 28.170 563
 28.175 615
 28.180 560
 28.185 445
 28.190 297
 28.195 288
 28.200 211
 28.205 214
 28.210 203
 28.215 204
 28.220 174
 28.225 175
 28.230 192
 28.235 161
 28.240 165
 28.245 181
 28.250 169
 28.255 184
 28.260 202
 28.265 190
 28.270 249
 28.275 243
 28.280 214
 28.285 178
 28.290 196
 28.295 187
 28.300 154
 28.305 183
 28.310 175
 28.315 179
 28.320 184
 28.325 197
 28.330 227
 28.335 209
 28.340 220
 28.345 194
 28.350 177
 28.355 162
 28.360 162
 28.365 162
 28.370 173
 28.375 158
 28.380 151
 28.385 153
 28.390 158
 28.395 154
 28.400 170
 28.405 143
 28.410 154
 28.415 158
 28.420 175
 28.425 183
 28.430 210
 28.435 194
 28.440 218
 28.445 258
 28.450 254
 28.455 283
 28.460 255
 28.465 215
 28.470 181
 28.475 158
 28.480 168
 28.485 150
 28.490 177
 28.495 154
 28.500 182
 28.505 160
 28.510 174
 28.515 150
 28.520 137
 28.525 158
 28.530 135
 28.535 163
 28.540 155
 28.545 161
 28.550 143
 28.555 187
 28.560 165
 28.565 155
 28.570 168
 28.575 181
 28.580 174
 28.585 176
 28.590 180
 28.595 179
 28.600 190
 28.605 171
 28.610 177
 28.615 185
 28.620 162
 28.625 198
 28.630 184
 28.635 179
 28.640 159
 28.645 169
 28.650 194
 28.655 186
 28.660 220
 28.665 290
 28.670 331
 28.675 426
 28.680 590
 28.685 653
 28.690 657
 28.695 585
 28.700 591
 28.705 513
 28.710 477
 28.715 443
 28.720 426
 28.725 414
 28.730 352
 28.735 299
 28.740 220
 28.745 216
 28.750 189
 28.755 210
 28.760 190
 28.765 182
 28.770 220
 28.775 223
 28.780 238
 28.785 279
 28.790 280
 28.795 268
 28.800 249
 28.805 244
 28.810 228
 28.815 236
 28.820 294
 28.825 338
 28.830 379
 28.835 400
 28.840 432
 28.845 416
 28.850 427
 28.855 373
 28.860 352
 28.865 341
 28.870 360
 28.875 432
 28.880 641
 28.885 784
 28.890 902
 28.895 898
 28.900 805
 28.905 632
 28.910 440
 28.915 325
 28.920 284
 28.925 227
 28.930 223
 28.935 205
 28.940 226
 28.945 206
 28.950 237
 28.955 326
 28.960 343
 28.965 425
 28.970 392
 28.975 341
 28.980 284
 28.985 277
 28.990 275
 28.995 326
 29.000 443
 29.005 552
 29.010 689
 29.015 702
 29.020 591
 29.025 499
 29.030 404
 29.035 279
 29.040 268
 29.045 226
 29.050 257
 29.055 247
 29.060 344
 29.065 366
 29.070 481
 29.075 539
 29.080 577
 29.085 477
 29.090 455
 29.095 390
 29.100 285
 29.105 261
 29.110 246
 29.115 215
 29.120 216
 29.125 204
 29.130 212
 29.135 213
 29.140 232
 29.145 254
 29.150 274
 29.155 311
 29.160 279
 29.165 251
 29.170 208
 29.175 191
 29.180 178
 29.185 166
 29.190 171
 29.195 196
 29.200 187
 29.205 225
 29.210 261
 29.215 268
 29.220 365
 29.225 454
 29.230 575
 29.235 679
 29.240 649
 29.245 537
 29.250 464
 29.255 281
 29.260 253
 29.265 205
 29.270 213
 29.275 221
 29.280 200
 29.285 196
 29.290 204
 29.295 190
 29.300 183
 29.305 170
 29.310 186
 29.315 166
 29.320 167
 29.325 169
 29.330 152
 29.335 162
 29.340 154
 29.345 176
 29.350 192
 29.355 167
 29.360 158
 29.365 152
 29.370 156
 29.375 136
 29.380 155
 29.385 179
 29.390 172
 29.395 182
 29.400 186
 29.405 160
 29.410 158
 29.415 164
 29.420 166
 29.425 167
 29.430 171
 29.435 170
 29.440 182
 29.445 187
 29.450 181
 29.455 237
 29.460 197
 29.465 228
 29.470 273
 29.475 220
 29.480 207
 29.485 193
 29.490 196
 29.495 245
 29.500 272
 29.505 334
 29.510 440
 29.515 511
 29.520 482
 29.525 442
 29.530 333
 29.535 251
 29.540 237
 29.545 229
 29.550 198
 29.555 220
 29.560 209
 29.565 252
 29.570 262
 29.575 233
 29.580 178
 29.585 173
 29.590 175
 29.595 169
 29.600 168
 29.605 166
 29.610 150
 29.615 171
 29.620 152
 29.625 172
 29.630 156
 29.635 173
 29.640 170
 29.645 156
 29.650 160
 29.655 181
 29.660 201
 29.665 191
 29.670 186
 29.675 211
 29.680 204
 29.685 255
 29.690 359
 29.695 454
 29.700 549
 29.705 652
 29.710 642
 29.715 588
 29.720 524
 29.725 444
 29.730 424
 29.735 362
 29.740 352
 29.745 343
 29.750 330
 29.755 353
 29.760 391
 29.765 431
 29.770 384
 29.775 363
 29.780 315
 29.785 271
 29.790 236
 29.795 238
 29.800 210
 29.805 267
 29.810 278
 29.815 345
 29.820 408
 29.825 553
 29.830 671
 29.835 662
 29.840 641
 29.845 490
 29.850 414
 29.855 328
 29.860 284
 29.865 356
 29.870 402
 29.875 478
 29.880 475
 29.885 439
 29.890 347
 29.895 264
 29.900 250
 29.905 204
 29.910 219
 29.915 188
 29.920 158
 29.925 182
 29.930 184
 29.935 203
 29.940 198
 29.945 169
 29.950 178
 29.955 193
 29.960 180
 29.965 198
 29.970 188
 29.975 213
 29.980 234
 29.985 267
 29.990 315
 29.995 368
 30.000 505
 30.005 569
 30.010 645
 30.015 680
 30.020 743
 30.025 690
 30.030 592
 30.035 521
 30.040 443
 30.045 325
 30.050 258
 30.055 274
 30.060 224
 30.065 213
 30.070 193
 30.075 194
 30.080 189
 30.085 188
 30.090 178
 30.095 176
 30.100 170
 30.105 197
 30.110 166
 30.115 181
 30.120 209
 30.125 204
 30.130 200
 30.135 212
 30.140 214
 30.145 252
 30.150 251
 30.155 268
 30.160 317
 30.165 393
 30.170 605
 30.175 874
 30.180 1283
 30.185 1607
 30.190 1718
 30.195 1491
 30.200 1048
 30.205 687
 30.210 476
 30.215 317
 30.220 286
 30.225 232
 30.230 214
 30.235 203
 30.240 186
 30.245 189
 30.250 179
 30.255 180
 30.260 197
 30.265 177
 30.270 185
 30.275 209
 30.280 214
 30.285 205
 30.290 208
 30.295 194
 30.300 212
 30.305 191
 30.310 197
 30.315 209
 30.320 235
 30.325 302
 30.330 313
 30.335 369
 30.340 410
 30.345 367
 30.350 287
 30.355 257
 30.360 302
 30.365 248
 30.370 245
 30.375 237
 30.380 278
 30.385 341
 30.390 353
 30.395 384
 30.400 409
 30.405 348
 30.410 299
 30.415 255
 30.420 207
 30.425 195
 30.430 175
 30.435 192
 30.440 186
 30.445 182
 30.450 202
 30.455 218
 30.460 236
 30.465 269
 30.470 334
 30.475 422
 30.480 488
 30.485 573
 30.490 572
 30.495 570
 30.500 508
 30.505 447
 30.510 547
 30.515 599
 30.520 671
 30.525 645
 30.530 528
 30.535 471
 30.540 403
 30.545 462
 30.550 446
 30.555 419
 30.560 444
 30.565 344
 30.570 292
 30.575 241
 30.580 239
 30.585 210
 30.590 181
 30.595 191
 30.600 163
 30.605 154
 30.610 165
 30.615 157
 30.620 159
 30.625 188
 30.630 173
 30.635 165
 30.640 174
 30.645 174
 30.650 166
 30.655 201
 30.660 211
 30.665 235
 30.670 215
 30.675 223
 30.680 215
 30.685 228
 30.690 268
 30.695 294
 30.700 368
 30.705 429
 30.710 491
 30.715 494
 30.720 503
 30.725 465
 30.730 449
 30.735 415
 30.740 386
 30.745 474
 30.750 587
 30.755 773
 30.760 916
 30.765 975
 30.770 820
 30.775 640
 30.780 472
 30.785 388
 30.790 297
 30.795 302
 30.800 308
 30.805 322
 30.810 330
 30.815 333
 30.820 412
 30.825 377
 30.830 367
 30.835 456
 30.840 410
 30.845 411
 30.850 424
 30.855 407
 30.860 469
 30.865 435
 30.870 354
 30.875 292
 30.880 247
 30.885 235
 30.890 235
 30.895 262
 30.900 253
 30.905 234
 30.910 228
 30.915 214
 30.920 196
 30.925 185
 30.930 180
 30.935 205
 30.940 197
 30.945 184
 30.950 180
 30.955 180
 30.960 175
 30.965 207
 30.970 190
 30.975 196
 30.980 231
 30.985 211
 30.990 271
 30.995 338
 31.000 453
 31.005 579
 31.010 689
 31.015 676
 31.020 634
 31.025 572
 31.030 506
 31.035 503
 31.040 514
 31.045 516
 31.050 425
 31.055 387
 31.060 322
 31.065 266
 31.070 245
 31.075 243
 31.080 204
 31.085 198
 31.090 239
 31.095 236
 31.100 239
 31.105 225
 31.110 230
 31.115 321
 31.120 348
 31.125 456
 31.130 504
 31.135 503
 31.140 449
 31.145 356
 31.150 290
 31.155 290
 31.160 225
 31.165 265
 31.170 283
 31.175 283
 31.180 320
 31.185 307
 31.190 287
 31.195 240
 31.200 211
 31.205 175
 31.210 158
 31.215 164
 31.220 187
 31.225 160
 31.230 164
 31.235 168
 31.240 163
 31.245 182
 31.250 169
 31.255 182
 31.260 128
 31.265 156
 31.270 164
 31.275 165
 31.280 182
 31.285 218
 31.290 208
 31.295 209
 31.300 204
 31.305 196
 31.310 211
 31.315 192
 31.320 191
 31.325 176
 31.330 165
 31.335 160
 31.340 172
 31.345 179
 31.350 180
 31.355 188
 31.360 176
 31.365 215
 31.370 247
 31.375 273
 31.380 306
 31.385 342
 31.390 347
 31.395 336
 31.400 332
 31.405 340
 31.410 361
 31.415 419
 31.420 428
 31.425 456
 31.430 472
 31.435 480
 31.440 515
 31.445 663
 31.450 799
 31.455 1016
 31.460 1139
 31.465 1068
 31.470 786
 31.475 679
 31.480 475
 31.485 392
 31.490 345
 31.495 375
 31.500 359
 31.505 361
 31.510 308
 31.515 360
 31.520 309
 31.525 291
 31.530 295
 31.535 368
 31.540 480
 31.545 629
 31.550 840
 31.555 1047
 31.560 1044
 31.565 967
 31.570 923
 31.575 721
 31.580 633
 31.585 464
 31.590 352
 31.595 314
 31.600 228
 31.605 212
 31.610 205
 31.615 184
 31.620 153
 31.625 179
 31.630 175
 31.635 179
 31.640 173
 31.645 141
 31.650 163
 31.655 174
 31.660 175
 31.665 156
 31.670 157
 31.675 173
 31.680 184
 31.685 199
 31.690 218
 31.695 177
 31.700 190
 31.705 141
 31.710 133
 31.715 142
 31.720 143
 31.725 140
 31.730 173
 31.735 184
 31.740 187
 31.745 229
 31.750 234
 31.755 246
 31.760 249
 31.765 242
 31.770 216
 31.775 167
 31.780 178
 31.785 153
 31.790 176
 31.795 152
 31.800 187
 31.805 156
 31.810 159
 31.815 176
 31.820 161
 31.825 166
 31.830 190
 31.835 164
 31.840 147
 31.845 157
 31.850 169
 31.855 144
 31.860 144
 31.865 144
 31.870 159
 31.875 161
 31.880 155
 31.885 158
 31.890 151
 31.895 130
 31.900 145
 31.905 155
 31.910 170
 31.915 130
 31.920 163
 31.925 155
 31.930 147
 31.935 164
 31.940 161
 31.945 162
 31.950 176
 31.955 144
 31.960 176
 31.965 180
 31.970 164
 31.975 150
 31.980 173
 31.985 195
 31.990 240
 31.995 241
 32.000 263
 32.005 316
 32.010 296
 32.015 278
 32.020 248
 32.025 226
 32.030 231
 32.035 209
 32.040 247
 32.045 285
 32.050 307
 32.055 395
 32.060 391
 32.065 349
 32.070 269
 32.075 269
 32.080 202
 32.085 183
 32.090 169
 32.095 176
 32.100 181
 32.105 180
 32.110 209
 32.115 249
 32.120 226
 32.125 211
 32.130 185
 32.135 163
 32.140 180
 32.145 191
 32.150 154
 32.155 161
 32.160 168
 32.165 176
 32.170 154
 32.175 203
 32.180 223
 32.185 265
 32.190 278
 32.195 262
 32.200 316
 32.205 330
 32.210 328
 32.215 306
 32.220 247
 32.225 267
 32.230 201
 32.235 197
 32.240 159
 32.245 190
 32.250 200
 32.255 218
 32.260 260
 32.265 310
 32.270 351
 32.275 319
 32.280 286
 32.285 240
 32.290 186
 32.295 187
 32.300 167
 32.305 169
 32.310 185
 32.315 173
 32.320 157
 32.325 158
 32.330 173
 32.335 187
 32.340 173
 32.345 172
 32.350 176
 32.355 173
 32.360 176
 32.365 197
 32.370 198
 32.375 228
 32.380 276
 32.385 286
 32.390 308
 32.395 292
 32.400 263
 32.405 272
 32.410 273
 32.415 321
 32.420 451
 32.425 470
 32.430 498
 32.435 499
 32.440 367
 32.445 355
 32.450 380
 32.455 392
 32.460 367
 32.465 302
 32.470 271
 32.475 258
 32.480 254
 32.485 175
 32.490 212
 32.495 219
 32.500 205
 32.505 221
 32.510 294
 32.515 325
 32.520 314
 32.525 316
 32.530 335
 32.535 260
 32.540 242
 32.545 245
 32.550 235
 32.555 201
 32.560 214
 32.565 222
 32.570 222
 32.575 259
 32.580 259
 32.585 271
 32.590 303
 32.595 355
 32.600 321
 32.605 314
 32.610 402
 32.615 393
 32.620 449
 32.625 427
 32.630 478
 32.635 465
 32.640 441
 32.645 433
 32.650 450
 32.655 546
 32.660 746
 32.665 1029
 32.670 1157
 32.675 1252
 32.680 1034
 32.685 851
 32.690 645
 32.695 490
 32.700 432
 32.705 440
 32.710 417
 32.715 364
 32.720 327
 32.725 305
 32.730 309
 32.735 266
 32.740 286
 32.745 272
 32.750 319
 32.755 384
 32.760 429
 32.765 660
 32.770 856
 32.775 1115
 32.780 1433
 32.785 1583
 32.790 1419
 32.795 1151
 32.800 898
 32.805 640
 32.810 504
 32.815 472
 32.820 415
 32.825 359
 32.830 344
 32.835 281
 32.840 239
 32.845 251
 32.850 207
 32.855 229
 32.860 223
 32.865 225
 32.870 238
 32.875 281
 32.880 204
 32.885 231
 32.890 266
 32.895 258
 32.900 266
 32.905 255
 32.910 264
 32.915 303
 32.920 317
 32.925 383
 32.930 393
 32.935 498
 32.940 603
 32.945 656
 32.950 672
 32.955 719
 32.960 855
 32.965 1032
 32.970 1218
 32.975 1323
 32.980 1164
 32.985 968
 32.990 788
 32.995 685
 33.000 723
 33.005 784
 33.010 843
 33.015 763
 33.020 639
 33.025 506
 33.030 482
 33.035 418
 33.040 461
 33.045 412
 33.050 478
 33.055 520
 33.060 495
 33.065 469
 33.070 375
 33.075 366
 33.080 275
 33.085 272
 33.090 266
 33.095 257
 33.100 206
 33.105 219
 33.110 250
 33.115 252
 33.120 272
 33.125 319
 33.130 346
 33.135 408
 33.140 418
 33.145 432
 33.150 470
 33.155 504
 33.160 451
 33.165 382
 33.170 366
 33.175 327
 33.180 266
 33.185 211
 33.190 211
 33.195 181
 33.200 173
 33.205 181
 33.210 168
 33.215 177
 33.220 164
 33.225 167
 33.230 163
 33.235 166
 33.240 176
 33.245 145
 33.250 152
 33.255 162
 33.260 166
 33.265 166
 33.270 158
 33.275 198
 33.280 152
 33.285 168
 33.290 151
 33.295 173
 33.300 173
 33.305 206
 33.310 226
 33.315 257
 33.320 271
 33.325 258
 33.330 307
 33.335 262
 33.340 252
 33.345 229
 33.350 276
 33.355 309
 33.360 392
 33.365 452
 33.370 557
 33.375 584
 33.380 497
 33.385 447
 33.390 392
 33.395 266
 33.400 236
 33.405 207
 33.410 209
 33.415 188
 33.420 176
 33.425 227
 33.430 232
 33.435 230
 33.440 272
 33.445 287
 33.450 250
 33.455 264
 33.460 256
 33.465 247
 33.470 215
 33.475 228
 33.480 244
 33.485 268
 33.490 301
 33.495 341
 33.500 433
 33.505 531
 33.510 628
 33.515 701
 33.520 767
 33.525 771
 33.530 718
 33.535 713
 33.540 684
 33.545 662
 33.550 621
 33.555 575
 33.560 576
 33.565 503
 33.570 477
 33.575 490
 33.580 458
 33.585 497
 33.590 495
 33.595 511
 33.600 486
 33.605 533
 33.610 458
 33.615 387
 33.620 390
 33.625 363
 33.630 358
 33.635 309
 33.640 284
 33.645 229
 33.650 231
 33.655 203
 33.660 231
 33.665 203
 33.670 205
 33.675 219
 33.680 213
 33.685 189
 33.690 195
 33.695 207
 33.700 207
 33.705 208
 33.710 255
 33.715 215
 33.720 205
 33.725 193
 33.730 159
 33.735 161
 33.740 169
 33.745 176
 33.750 151
 33.755 170
 33.760 170
 33.765 186
 33.770 169
 33.775 214
 33.780 239
 33.785 295
 33.790 317
 33.795 381
 33.800 415
 33.805 401
 33.810 420
 33.815 434
 33.820 492
 33.825 581
 33.830 631
 33.835 604
 33.840 546
 33.845 459
 33.850 426
 33.855 463
 33.860 473
 33.865 505
 33.870 420
 33.875 427
 33.880 343
 33.885 334
 33.890 292
 33.895 313
 33.900 348
 33.905 322
 33.910 374
 33.915 371
 33.920 299
 33.925 340
 33.930 333
 33.935 347
 33.940 392
 33.945 494
 33.950 587
 33.955 570
 33.960 538
 33.965 541
 33.970 528
 33.975 636
 33.980 781
 33.985 831
 33.990 860
 33.995 694
 34.000 535
 34.005 482
 34.010 352
 34.015 370
 34.020 377
 34.025 368
 34.030 400
 34.035 402
 34.040 369
 34.045 347
 34.050 341
 34.055 307
 34.060 245
 34.065 207
 34.070 228
 34.075 220
 34.080 212
 34.085 182
 34.090 201
 34.095 208
 34.100 216
 34.105 180
 34.110 206
 34.115 225
 34.120 255
 34.125 319
 34.130 376
 34.135 455
 34.140 543
 34.145 571
 34.150 623
 34.155 527
 34.160 484
 34.165 417
 34.170 344
 34.175 315
 34.180 290
 34.185 320
 34.190 297
 34.195 310
 34.200 335
 34.205 355
 34.210 351
 34.215 450
 34.220 511
 34.225 614
 34.230 705
 34.235 723
 34.240 613
 34.245 543
 34.250 438
 34.255 374
 34.260 269
 34.265 260
 34.270 214
 34.275 234
 34.280 216
 34.285 213
 34.290 248
 34.295 301
 34.300 394
 34.305 428
 34.310 491
 34.315 587
 34.320 597
 34.325 622
 34.330 574
 34.335 446
 34.340 399
 34.345 318
 34.350 284
 34.355 286
 34.360 244
 34.365 257
 34.370 261
 34.375 273
 34.380 282
 34.385 322
 34.390 459
 34.395 636
 34.400 763
 34.405 876
 34.410 814
 34.415 754
 34.420 632
 34.425 574
 34.430 509
 34.435 399
 34.440 337
 34.445 288
 34.450 268
 34.455 260
 34.460 255
 34.465 271
 34.470 292
 34.475 326
 34.480 285
 34.485 266
 34.490 268
 34.495 247
 34.500 199
 34.505 207
 34.510 242
 34.515 232
 34.520 238
 34.525 253
 34.530 250
 34.535 234
 34.540 185
 34.545 245
 34.550 240
 34.555 229
 34.560 258
 34.565 331
 34.570 438
 34.575 494
 34.580 575
 34.585 651
 34.590 662
 34.595 651
 34.600 442
 34.605 432
 34.610 461
 34.615 409
 34.620 409
 34.625 385
 34.630 318
 34.635 255
 34.640 257
 34.645 193
 34.650 213
 34.655 212
 34.660 213
 34.665 189
 34.670 236
 34.675 226
 34.680 220
 34.685 212
 34.690 183
 34.695 169
 34.700 211
 34.705 190
 34.710 167
 34.715 194
 34.720 202
 34.725 205
 34.730 250
 34.735 266
 34.740 311
 34.745 261
 34.750 321
 34.755 361
 34.760 451
 34.765 448
 34.770 383
 34.775 355
 34.780 317
 34.785 298
 34.790 263
 34.795 284
 34.800 305
 34.805 319
 34.810 377
 34.815 332
 34.820 326
 34.825 323
 34.830 293
 34.835 276
 34.840 242
 34.845 195
 34.850 196
 34.855 179
 34.860 172
 34.865 189
 34.870 182
 34.875 167
 34.880 157
 34.885 185
 34.890 205
 34.895 243
 34.900 258
 34.905 276
 34.910 265
 34.915 247
 34.920 223
 34.925 230
 34.930 230
 34.935 242
 34.940 233
 34.945 266
 34.950 278
 34.955 277
 34.960 221
 34.965 218
 34.970 273
 34.975 274
 34.980 327
 34.985 364
 34.990 431
 34.995 422
 35.000 450
 35.005 453
 35.010 487
 35.015 548
 35.020 649
 35.025 751
 35.030 773
 35.035 870
 35.040 900
 35.045 865
 35.050 826
 35.055 742
 35.060 628
 35.065 555
 35.070 439
 35.075 375
 35.080 336
 35.085 254
 35.090 246
 35.095 228
 35.100 195
 35.105 212
 35.110 175
 35.115 204
 35.120 204
 35.125 214
 35.130 258
 35.135 235
 35.140 234
 35.145 233
 35.150 207
 35.155 187
 35.160 170
 35.165 174
 35.170 143
 35.175 149
 35.180 175
 35.185 163
 35.190 148
 35.195 167
 35.200 168
 35.205 217
 35.210 242
 35.215 209
 35.220 245
 35.225 238
 35.230 285
 35.235 299
 35.240 317
 35.245 298
 35.250 301
 35.255 324
 35.260 337
 35.265 338
 35.270 438
 35.275 501
 35.280 476
 35.285 520
 35.290 549
 35.295 567
 35.300 582
 35.305 708
 35.310 652
 35.315 651
 35.320 583
 35.325 489
 35.330 349
 35.335 302
 35.340 248
 35.345 248
 35.350 248
 35.355 341
 35.360 352
 35.365 398
 35.370 381
 35.375 373
 35.380 307
 35.385 270
 35.390 225
 35.395 216
 35.400 230
 35.405 245
 35.410 329
 35.415 316
 35.420 382
 35.425 370
 35.430 364
 35.435 295
 35.440 247
 35.445 215
 35.450 224
 35.455 181
 35.460 180
 35.465 195
 35.470 183
 35.475 190
 35.480 176
 35.485 180
 35.490 204
 35.495 206
 35.500 242
 35.505 291
 35.510 344
 35.515 383
 35.520 466
 35.525 496
 35.530 497
 35.535 373
 35.540 355
 35.545 303
 35.550 236
 35.555 229
 35.560 265
 35.565 251
 35.570 233
 35.575 200
 35.580 195
 35.585 230
 35.590 225
 35.595 234
 35.600 281
 35.605 313
 35.610 368
 35.615 341
 35.620 345
 35.625 304
 35.630 265
 35.635 278
 35.640 291
 35.645 281
 35.650 273
 35.655 289
 35.660 292
 35.665 273
 35.670 291
 35.675 267
 35.680 270
 35.685 242
 35.690 257
 35.695 266
 35.700 268
 35.705 334
 35.710 382
 35.715 513
 35.720 683
 35.725 1005
 35.730 1328
 35.735 1579
 35.740 1683
 35.745 1813
 35.750 1649
 35.755 1653
 35.760 1478
 35.765 1276
 35.770 1042
 35.775 817
 35.780 635
 35.785 491
 35.790 426
 35.795 345
 35.800 321
 35.805 302
 35.810 299
 35.815 239
 35.820 251
 35.825 216
 35.830 216
 35.835 224
 35.840 230
 35.845 278
 35.850 307
 35.855 445
 35.860 520
 35.865 726
 35.870 725
 35.875 759
 35.880 620
 35.885 528
 35.890 412
 35.895 277
 35.900 262
 35.905 250
 35.910 249
 35.915 226
 35.920 229
 35.925 215
 35.930 253
 35.935 249
 35.940 272
 35.945 256
 35.950 277
 35.955 298
 35.960 319
 35.965 400
 35.970 449
 35.975 528
 35.980 579
 35.985 495
 35.990 464
 35.995 380
 36.000 315
 36.005 247
 36.010 248
 36.015 205
 36.020 201
 36.025 217
 36.030 248
 36.035 250
 36.040 308
 36.045 320
 36.050 316
 36.055 406
 36.060 383
 36.065 357
 36.070 327
 36.075 308
 36.080 267
 36.085 222
 36.090 203
 36.095 210
 36.100 198
 36.105 214
 36.110 221
 36.115 244
 36.120 231
 36.125 255
 36.130 234
 36.135 211
 36.140 200
 36.145 195
 36.150 183
 36.155 156
 36.160 135
 36.165 173
 36.170 169
 36.175 148
 36.180 184
 36.185 204
 36.190 212
 36.195 226
 36.200 273
 36.205 297
 36.210 263
 36.215 262
 36.220 290
 36.225 303
 36.230 363
 36.235 332
 36.240 306
 36.245 260
 36.250 218
 36.255 192
 36.260 208
 36.265 206
 36.270 217
 36.275 233
 36.280 230
 36.285 270
 36.290 235
 36.295 234
 36.300 211
 36.305 219
 36.310 177
 36.315 152
 36.320 174
 36.325 189
 36.330 174
 36.335 211
 36.340 202
 36.345 241
 36.350 264
 36.355 254
 36.360 214
 36.365 191
 36.370 186
 36.375 191
 36.380 197
 36.385 168
 36.390 175
 36.395 181
 36.400 185
 36.405 202
 36.410 187
 36.415 163
 36.420 189
 36.425 207
 36.430 246
 36.435 323
 36.440 402
 36.445 466
 36.450 456
 36.455 396
 36.460 308
 36.465 250
 36.470 223
 36.475 207
 36.480 213
 36.485 195
 36.490 211
 36.495 206
 36.500 213
 36.505 206
 36.510 207
 36.515 176
 36.520 221
 36.525 185
 36.530 172
 36.535 187
 36.540 172
 36.545 146
 36.550 142
 36.555 137
 36.560 130
 36.565 180
 36.570 148
 36.575 165
 36.580 191
 36.585 165
 36.590 230
 36.595 165
 36.600 201
 36.605 175
 36.610 153
 36.615 159
 36.620 157
 36.625 162
 36.630 176
 36.635 166
 36.640 178
 36.645 208
 36.650 236
 36.655 261
 36.660 290
 36.665 261
 36.670 262
 36.675 235
 36.680 206
 36.685 232
 36.690 203
 36.695 195
 36.700 250
 36.705 231
 36.710 237
 36.715 253
 36.720 283
 36.725 271
 36.730 300
 36.735 305
 36.740 295
 36.745 270
 36.750 231
 36.755 232
 36.760 231
 36.765 245
 36.770 240
 36.775 302
 36.780 281
 36.785 347
 36.790 479
 36.795 710
 36.800 846
 36.805 1038
 36.810 1115
 36.815 1079
 36.820 1112
 36.825 970
 36.830 833
 36.835 764
 36.840 646
 36.845 601
 36.850 475
 36.855 388
 36.860 348
 36.865 268
 36.870 278
 36.875 281
 36.880 316
 36.885 358
 36.890 430
 36.895 596
 36.900 696
 36.905 689
 36.910 821
 36.915 765
 36.920 675
 36.925 582
 36.930 558
 36.935 481
 36.940 541
 36.945 563
 36.950 599
 36.955 653
 36.960 562
 36.965 571
 36.970 528
 36.975 505
 36.980 500
 36.985 510
 36.990 407
 36.995 440
 37.000 345
 37.005 350
 37.010 279
 37.015 261
 37.020 247
 37.025 226
 37.030 248
 37.035 250
 37.040 258
 37.045 325
 37.050 335
 37.055 361
 37.060 317
 37.065 282
 37.070 263
 37.075 247
 37.080 250
 37.085 264
 37.090 290
 37.095 293
 37.100 365
 37.105 455
 37.110 589
 37.115 637
 37.120 754
 37.125 800
 37.130 863
 37.135 808
 37.140 785
 37.145 663
 37.150 526
 37.155 426
 37.160 305
 37.165 300
 37.170 329
 37.175 290
 37.180 311
 37.185 292
 37.190 267
 37.195 229
 37.200 242
 37.205 231
 37.210 252
 37.215 279
 37.220 354
 37.225 323
 37.230 354
 37.235 295
 37.240 265
 37.245 297
 37.250 344
 37.255 383
 37.260 411
 37.265 485
 37.270 451
 37.275 470
 37.280 402
 37.285 502
 37.290 539
 37.295 610
 37.300 643
 37.305 576
 37.310 488
 37.315 507
 37.320 521
 37.325 540
 37.330 600
 37.335 514
 37.340 443
 37.345 396
 37.350 312
 37.355 277
 37.360 272
 37.365 267
 37.370 294
 37.375 353
 37.380 417
 37.385 543
 37.390 628
 37.395 803
 37.400 756
 37.405 733
 37.410 563
 37.415 435
 37.420 308
 37.425 267
 37.430 240
 37.435 211
 37.440 221
 37.445 192
 37.450 209
 37.455 250
 37.460 246
 37.465 311
 37.470 274
 37.475 299
 37.480 290
 37.485 229
 37.490 266
 37.495 271
 37.500 334
 37.505 431
 37.510 546
 37.515 628
 37.520 713
 37.525 745
 37.530 601
 37.535 522
 37.540 431
 37.545 341
 37.550 356
 37.555 384
 37.560 470
 37.565 609
 37.570 719
 37.575 875
 37.580 928
 37.585 841
 37.590 673
 37.595 500
 37.600 380
 37.605 313
 37.610 255
 37.615 268
 37.620 246
 37.625 268
 37.630 281
 37.635 278
 37.640 348
 37.645 393
 37.650 402
 37.655 443
 37.660 347
 37.665 295
 37.670 291
 37.675 234
 37.680 215
 37.685 194
 37.690 219
 37.695 183
 37.700 210
 37.705 256
 37.710 282
 37.715 330
 37.720 358
 37.725 355
 37.730 342
 37.735 354
 37.740 340
 37.745 369
 37.750 370
 37.755 344
 37.760 380
 37.765 350
 37.770 408
 37.775 464
 37.780 382
 37.785 424
 37.790 460
 37.795 529
 37.800 543
 37.805 583
 37.810 656
 37.815 609
 37.820 532
 37.825 502
 37.830 407
 37.835 362
 37.840 281
 37.845 269
 37.850 245
 37.855 233
 37.860 256
 37.865 253
 37.870 274
 37.875 321
 37.880 385
 37.885 470
 37.890 529
 37.895 466
 37.900 399
 37.905 368
 37.910 341
 37.915 241
 37.920 275
 37.925 252
 37.930 274
 37.935 331
 37.940 356
 37.945 397
 37.950 500
 37.955 580
 37.960 663
 37.965 646
 37.970 597
 37.975 513
 37.980 441
 37.985 369
 37.990 342
 37.995 289
 38.000 300
 38.005 312
 38.010 352
 38.015 378
 38.020 392
 38.025 378
 38.030 326
 38.035 284
 38.040 234
 38.045 273
 38.050 280
 38.055 285
 38.060 355
 38.065 408
 38.070 336
 38.075 404
 38.080 309
 38.085 274
 38.090 234
 38.095 232
 38.100 202
 38.105 204
 38.110 179
 38.115 175
 38.120 208
 38.125 221
 38.130 245
 38.135 232
 38.140 294
 38.145 321
 38.150 350
 38.155 356
 38.160 356
 38.165 343
 38.170 344
 38.175 300
 38.180 367
 38.185 335
 38.190 418
 38.195 427
 38.200 440
 38.205 430
 38.210 465
 38.215 510
 38.220 514
 38.225 526
 38.230 509
 38.235 462
 38.240 370
 38.245 271
 38.250 267
 38.255 262
 38.260 234
 38.265 249
 38.270 278
 38.275 281
 38.280 321
 38.285 330
 38.290 289
 38.295 277
 38.300 250
 38.305 228
 38.310 216
 38.315 184
 38.320 201
 38.325 199
 38.330 222
 38.335 204
 38.340 228
 38.345 229
 38.350 208
 38.355 199
 38.360 194
 38.365 205
 38.370 211
 38.375 231
 38.380 263
 38.385 279
 38.390 275
 38.395 285
 38.400 302
 38.405 282
 38.410 334
 38.415 334
 38.420 361
 38.425 330
 38.430 315
 38.435 318
 38.440 378
 38.445 400
 38.450 446
 38.455 452
 38.460 440
 38.465 387
 38.470 373
 38.475 378
 38.480 343
 38.485 317
 38.490 314
 38.495 294
 38.500 306
 38.505 307
 38.510 322
 38.515 265
 38.520 262
 38.525 242
 38.530 219
 38.535 209
 38.540 236
 38.545 248
 38.550 278
 38.555 304
 38.560 370
 38.565 400
 38.570 491
 38.575 449
 38.580 466
 38.585 438
 38.590 330
 38.595 293
 38.600 250
 38.605 221
 38.610 209
 38.615 249
 38.620 246
 38.625 256
 38.630 232
 38.635 249
 38.640 226
 38.645 217
 38.650 266
 38.655 278
 38.660 344
 38.665 380
 38.670 323
 38.675 324
 38.680 248
 38.685 237
 38.690 209
 38.695 237
 38.700 236
 38.705 257
 38.710 277
 38.715 303
 38.720 302
 38.725 327
 38.730 280
 38.735 281
 38.740 233
 38.745 206
 38.750 213
 38.755 183
 38.760 219
 38.765 183
 38.770 202
 38.775 201
 38.780 224
 38.785 265
 38.790 267
 38.795 300
 38.800 316
 38.805 290
 38.810 279
 38.815 233
 38.820 234
 38.825 192
 38.830 192
 38.835 184
 38.840 198
 38.845 215
 38.850 297
 38.855 272
 38.860 290
 38.865 273
 38.870 267
 38.875 292
 38.880 340
 38.885 357
 38.890 419
 38.895 505
 38.900 502
 38.905 544
 38.910 631
 38.915 621
 38.920 555
 38.925 486
 38.930 447
 38.935 433
 38.940 460
 38.945 471
 38.950 483
 38.955 477
 38.960 461
 38.965 455
 38.970 459
 38.975 446
 38.980 385
 38.985 350
 38.990 287
 38.995 309
 39.000 389
 39.005 491
 39.010 539
 39.015 595
 39.020 582
 39.025 531
 39.030 496
 39.035 450
 39.040 463
 39.045 488
 39.050 524
 39.055 510
 39.060 484
 39.065 518
 39.070 593
 39.075 639
 39.080 774
 39.085 786
 39.090 738
 39.095 627
 39.100 487
 39.105 418
 39.110 320
 39.115 312
 39.120 248
 39.125 271
 39.130 275
 39.135 317
 39.140 334
 39.145 406
 39.150 343
 39.155 409
 39.160 426
 39.165 549
 39.170 608
 39.175 599
 39.180 608
 39.185 582
 39.190 555
 39.195 548
 39.200 452
 39.205 384
 39.210 313
 39.215 318
 39.220 293
 39.225 299
 39.230 308
 39.235 344
 39.240 415
 39.245 515
 39.250 500
 39.255 502
 39.260 447
 39.265 400
 39.270 315
 39.275 273
 39.280 275
 39.285 297
 39.290 320
 39.295 413
 39.300 473
 39.305 555
 39.310 668
 39.315 633
 39.320 522
 39.325 454
 39.330 352
 39.335 298
 39.340 218
 39.345 214
 39.350 215
 39.355 187
 39.360 178
 39.365 194
 39.370 208
 39.375 220
 39.380 202
 39.385 197
 39.390 154
 39.395 186
 39.400 199
 39.405 178
 39.410 170
 39.415 195
 39.420 172
 39.425 203
 39.430 247
 39.435 336
 39.440 383
 39.445 448
 39.450 449
 39.455 472
 39.460 439
 39.465 365
 39.470 275
 39.475 248
 39.480 217
 39.485 181
 39.490 177
 39.495 205
 39.500 210
 39.505 207
 39.510 235
 39.515 267
 39.520 334
 39.525 346
 39.530 325
 39.535 315
 39.540 284
 39.545 276
 39.550 200
 39.555 217
 39.560 249
 39.565 264
 39.570 267
 39.575 279
 39.580 302
 39.585 292
 39.590 325
 39.595 297
 39.600 322
 39.605 323
 39.610 366
 39.615 338
 39.620 295
 39.625 237
 39.630 219
 39.635 198
 39.640 201
 39.645 197
 39.650 196
 39.655 200
 39.660 174
 39.665 227
 39.670 203
 39.675 178
 39.680 191
 39.685 166
 39.690 144
 39.695 152
 39.700 166
 39.705 131
 39.710 159
 39.715 171
 39.720 166
 39.725 178
 39.730 200
 39.735 231
 39.740 259
 39.745 272
 39.750 224
 39.755 237
 39.760 191
 39.765 182
 39.770 162
 39.775 151
 39.780 154
 39.785 164
 39.790 146
 39.795 147
 39.800 146
 39.805 153
 39.810 162
 39.815 118
 39.820 135
 39.825 133
 39.830 153
 39.835 148
 39.840 146
 39.845 140
 39.850 135
 39.855 130
 39.860 170
 39.865 156
 39.870 150
 39.875 151
 39.880 155
 39.885 143
 39.890 175
 39.895 167
 39.900 196
 39.905 185
 39.910 201
 39.915 214
 39.920 204
 39.925 206
 39.930 213
 39.935 193
 39.940 233
 39.945 250
 39.950 268
 39.955 338
 39.960 431
 39.965 546
 39.970 659
 39.975 695
 39.980 835
 39.985 770
 39.990 626
 39.995 610
 40.000 586
 40.005 555
 40.010 548
 40.015 558
 40.020 530
 40.025 508
 40.030 437
 40.035 334
 40.040 292
 40.045 274
 40.050 262
 40.055 226
 40.060 228
 40.065 240
 40.070 226
 40.075 245
 40.080 238
 40.085 297
 40.090 310
 40.095 421
 40.100 503
 40.105 597
 40.110 754
 40.115 864
 40.120 830
 40.125 704
 40.130 583
 40.135 456
 40.140 373
 40.145 343
 40.150 379
 40.155 400
 40.160 451
 40.165 548
 40.170 635
 40.175 673
 40.180 634
 40.185 636
 40.190 586
 40.195 518
 40.200 524
 40.205 520
 40.210 536
 40.215 562
 40.220 620
 40.225 538
 40.230 534
 40.235 499
 40.240 512
 40.245 496
 40.250 504
 40.255 526
 40.260 519
 40.265 426
 40.270 399
 40.275 342
 40.280 278
 40.285 265
 40.290 293
 40.295 322
 40.300 333
 40.305 322
 40.310 370
 40.315 374
 40.320 336
 40.325 352
 40.330 344
 40.335 358
 40.340 380
 40.345 365
 40.350 336
 40.355 320
 40.360 305
 40.365 259
 40.370 216
 40.375 195
 40.380 187
 40.385 149
 40.390 183
 40.395 160
 40.400 176
 40.405 165
 40.410 200
 40.415 172
 40.420 168
 40.425 162
 40.430 200
 40.435 216
 40.440 196
 40.445 224
 40.450 279
 40.455 286
 40.460 306
 40.465 266
 40.470 249
 40.475 270
 40.480 255
 40.485 244
 40.490 280
 40.495 257
 40.500 250
 40.505 284
 40.510 295
 40.515 304
 40.520 288
 40.525 270
 40.530 280
 40.535 254
 40.540 242
 40.545 218
 40.550 271
 40.555 190
 40.560 192
 40.565 172
 40.570 182
 40.575 212
 40.580 184
 40.585 254
 40.590 291
 40.595 279
 40.600 255
 40.605 291
 40.610 280
 40.615 277
 40.620 327
 40.625 359
 40.630 373
 40.635 379
 40.640 347
 40.645 288
 40.650 242
 40.655 238
 40.660 186
 40.665 198
 40.670 163
 40.675 189
 40.680 200
 40.685 206
 40.690 217
 40.695 237
 40.700 234
 40.705 237
 40.710 254
 40.715 279
 40.720 245
 40.725 251
 40.730 246
 40.735 244
 40.740 224
 40.745 225
 40.750 264
 40.755 217
 40.760 225
 40.765 198
 40.770 183
 40.775 184
 40.780 170
 40.785 161
 40.790 183
 40.795 161
 40.800 186
 40.805 170
 40.810 160
 40.815 164
 40.820 164
 40.825 170
 40.830 182
 40.835 145
 40.840 151
 40.845 169
 40.850 163
 40.855 172
 40.860 193
 40.865 166
 40.870 193
 40.875 183
 40.880 187
 40.885 175
 40.890 193
 40.895 240
 40.900 228
 40.905 233
 40.910 233
 40.915 239
 40.920 227
 40.925 196
 40.930 179
 40.935 186
 40.940 162
 40.945 150
 40.950 152
 40.955 152
 40.960 198
 40.965 178
 40.970 199
 40.975 210
 40.980 194
 40.985 209
 40.990 190
 40.995 181
 41.000 179
 41.005 153
 41.010 149
 41.015 162
 41.020 171
 41.025 168
 41.030 157
 41.035 176
 41.040 162
 41.045 133
 41.050 169
 41.055 137
 41.060 172
 41.065 181
 41.070 166
 41.075 176
 41.080 176
 41.085 163
 41.090 170
 41.095 225
 41.100 239
 41.105 276
 41.110 307
 41.115 311
 41.120 314
 41.125 281
 41.130 284
 41.135 292
 41.140 231
 41.145 221
 41.150 188
 41.155 182
 41.160 173
 41.165 193
 41.170 204
 41.175 216
 41.180 244
 41.185 287
 41.190 344
 41.195 344
 41.200 342
 41.205 372
 41.210 345
 41.215 348
 41.220 275
 41.225 210
 41.230 194
 41.235 183
 41.240 199
 41.245 192
 41.250 181
 41.255 192
 41.260 174
 41.265 177
 41.270 172
 41.275 173
 41.280 147
 41.285 153
 41.290 159
 41.295 159
 41.300 136
 41.305 151
 41.310 157
 41.315 163
 41.320 195
 41.325 180
 41.330 212
 41.335 214
 41.340 235
 41.345 218
 41.350 213
 41.355 219
 41.360 195
 41.365 173
 41.370 186
 41.375 209
 41.380 202
 41.385 227
 41.390 237
 41.395 228
 41.400 214
 41.405 216
 41.410 233
 41.415 227
 41.420 208
 41.425 197
 41.430 203
 41.435 210
 41.440 196
 41.445 208
 41.450 221
 41.455 283
 41.460 302
 41.465 395
 41.470 466
 41.475 570
 41.480 629
 41.485 688
 41.490 553
 41.495 495
 41.500 419
 41.505 388
 41.510 403
 41.515 407
 41.520 513
 41.525 665
 41.530 819
 41.535 1012
 41.540 1117
 41.545 953
 41.550 866
 41.555 656
 41.560 534
 41.565 425
 41.570 421
 41.575 375
 41.580 334
 41.585 344
 41.590 353
 41.595 376
 41.600 445
 41.605 481
 41.610 525
 41.615 583
 41.620 532
 41.625 487
 41.630 446
 41.635 426
 41.640 397
 41.645 383
 41.650 351
 41.655 304
 41.660 263
 41.665 216
 41.670 262
 41.675 214
 41.680 207
 41.685 189
 41.690 177
 41.695 187
 41.700 182
 41.705 175
 41.710 181
 41.715 175
 41.720 183
 41.725 195
 41.730 191
 41.735 208
 41.740 187
 41.745 176
 41.750 194
 41.755 170
 41.760 193
 41.765 191
 41.770 183
 41.775 182
 41.780 216
 41.785 229
 41.790 218
 41.795 242
 41.800 253
 41.805 214
 41.810 219
 41.815 227
 41.820 237
 41.825 181
 41.830 206
 41.835 181
 41.840 186
 41.845 227
 41.850 201
 41.855 194
 41.860 169
 41.865 160
 41.870 171
 41.875 134
 41.880 152
 41.885 177
 41.890 185
 41.895 176
 41.900 172
 41.905 198
 41.910 200
 41.915 192
 41.920 182
 41.925 242
 41.930 229
 41.935 200
 41.940 273
 41.945 218
 41.950 257
 41.955 316
 41.960 372
 41.965 423
 41.970 461
 41.975 459
 41.980 452
 41.985 452
 41.990 386
 41.995 341
 42.000 348
 42.005 328
 42.010 274
 42.015 256
 42.020 267
 42.025 268
 42.030 212
 42.035 207
 42.040 199
 42.045 220
 42.050 241
 42.055 270
 42.060 249
 42.065 260
 42.070 263
 42.075 271
 42.080 232
 42.085 252
 42.090 214
 42.095 189
 42.100 220
 42.105 232
 42.110 202
 42.115 250
 42.120 230
 42.125 267
 42.130 249
 42.135 235
 42.140 221
 42.145 207
 42.150 200
 42.155 248
 42.160 243
 42.165 272
 42.170 347
 42.175 354
 42.180 310
 42.185 304
 42.190 321
 42.195 285
 42.200 275
 42.205 284
 42.210 309
 42.215 238
 42.220 229
 42.225 211
 42.230 187
 42.235 203
 42.240 156
 42.245 162
 42.250 191
 42.255 198
 42.260 180
 42.265 217
 42.270 258
 42.275 242
 42.280 254
 42.285 271
 42.290 239
 42.295 267
 42.300 236
 42.305 229
 42.310 222
 42.315 228
 42.320 238
 42.325 296
 42.330 278
 42.335 260
 42.340 306
 42.345 247
 42.350 295
 42.355 334
 42.360 362
 42.365 427
 42.370 551
 42.375 605
 42.380 569
 42.385 509
 42.390 467
 42.395 342
 42.400 286
 42.405 267
 42.410 227
 42.415 259
 42.420 272
 42.425 230
 42.430 245
 42.435 238
 42.440 248
 42.445 253
 42.450 223
 42.455 223
 42.460 226
 42.465 267
 42.470 295
 42.475 281
 42.480 265
 42.485 269
 42.490 242
 42.495 231
 42.500 201
 42.505 177
 42.510 211
 42.515 207
 42.520 207
 42.525 251
 42.530 278
 42.535 288
 42.540 288
 42.545 283
 42.550 227
 42.555 236
 42.560 222
 42.565 220
 42.570 249
 42.575 226
 42.580 241
 42.585 275
 42.590 274
 42.595 236
 42.600 254
 42.605 238
 42.610 207
 42.615 241
 42.620 261
 42.625 248
 42.630 276
 42.635 261
 42.640 257
 42.645 235
 42.650 244
 42.655 208
 42.660 203
 42.665 192
 42.670 191
 42.675 201
 42.680 203
 42.685 187
 42.690 205
 42.695 175
 42.700 163
 42.705 180
 42.710 210
 42.715 220
 42.720 241
 42.725 269
 42.730 304
 42.735 450
 42.740 504
 42.745 638
 42.750 663
 42.755 727
 42.760 740
 42.765 556
 42.770 528
 42.775 426
 42.780 336
 42.785 284
 42.790 220
 42.795 198
 42.800 196
 42.805 203
 42.810 193
 42.815 190
 42.820 184
 42.825 162
 42.830 152
 42.835 158
 42.840 169
 42.845 184
 42.850 172
 42.855 192
 42.860 214
 42.865 225
 42.870 249
 42.875 248
 42.880 263
 42.885 301
 42.890 324
 42.895 275
 42.900 274
 42.905 230
 42.910 210
 42.915 187
 42.920 205
 42.925 193
 42.930 201
 42.935 150
 42.940 167
 42.945 149
 42.950 160
 42.955 168
 42.960 147
 42.965 182
 42.970 182
 42.975 172
 42.980 192
 42.985 233
 42.990 249
 42.995 274
 43.000 298
 43.005 253
 43.010 248
 43.015 266
 43.020 229
 43.025 227
 43.030 255
 43.035 276
 43.040 298
 43.045 358
 43.050 399
 43.055 365
 43.060 399
 43.065 366
 43.070 324
 43.075 327
 43.080 272
 43.085 271
 43.090 235
 43.095 222
 43.100 242
 43.105 253
 43.110 245
 43.115 271
 43.120 309
 43.125 317
 43.130 304
 43.135 267
 43.140 255
 43.145 269
 43.150 221
 43.155 245
 43.160 272
 43.165 284
 43.170 275
 43.175 367
 43.180 351
 43.185 395
 43.190 364
 43.195 340
 43.200 328
 43.205 244
 43.210 254
 43.215 222
 43.220 181
 43.225 190
 43.230 200
 43.235 246
 43.240 224
 43.245 199
 43.250 198
 43.255 177
 43.260 152
 43.265 169
 43.270 180
 43.275 170
 43.280 183
 43.285 163
 43.290 236
 43.295 241
 43.300 220
 43.305 238
 43.310 232
 43.315 240
 43.320 256
 43.325 216
 43.330 206
 43.335 205
 43.340 217
 43.345 223
 43.350 246
 43.355 267
 43.360 348
 43.365 398
 43.370 389
 43.375 435
 43.380 389
 43.385 394
 43.390 322
 43.395 274
 43.400 268
 43.405 268
 43.410 256
 43.415 255
 43.420 288
 43.425 293
 43.430 326
 43.435 250
 43.440 239
 43.445 225
 43.450 200
 43.455 182
 43.460 191
 43.465 196
 43.470 188
 43.475 254
 43.480 274
 43.485 250
 43.490 256
 43.495 260
 43.500 288
 43.505 204
 43.510 171
 43.515 177
 43.520 177
 43.525 183
 43.530 166
 43.535 176
 43.540 206
 43.545 203
 43.550 211
 43.555 198
 43.560 199
 43.565 219
 43.570 186
 43.575 169
 43.580 163
 43.585 190
 43.590 208
 43.595 174
 43.600 189
 43.605 198
 43.610 196
 43.615 227
 43.620 230
 43.625 243
 43.630 259
 43.635 256
 43.640 244
 43.645 238
 43.650 264
 43.655 235
 43.660 228
 43.665 215
 43.670 202
 43.675 187
 43.680 186
 43.685 185
 43.690 171
 43.695 184
 43.700 151
 43.705 135
 43.710 186
 43.715 149
 43.720 154
 43.725 140
 43.730 149
 43.735 156
 43.740 150
 43.745 136
 43.750 169
 43.755 185
 43.760 200
 43.765 231
 43.770 244
 43.775 240
 43.780 216
 43.785 234
 43.790 177
 43.795 217
 43.800 247
 43.805 205
 43.810 258
 43.815 282
 43.820 276
 43.825 278
 43.830 344
 43.835 357
 43.840 344
 43.845 376
 43.850 407
 43.855 386
 43.860 373
 43.865 333
 43.870 296
 43.875 277
 43.880 274
 43.885 267
 43.890 276
 43.895 256
 43.900 371
 43.905 363
 43.910 501
 43.915 635
 43.920 785
 43.925 981
 43.930 1026
 43.935 953
 43.940 828
 43.945 726
 43.950 688
 43.955 567
 43.960 562
 43.965 468
 43.970 388
 43.975 332
 43.980 287
 43.985 278
 43.990 266
 43.995 259
 44.000 225
 44.005 254
 44.010 220
 44.015 194
 44.020 187
 44.025 200
 44.030 216
 44.035 229
 44.040 215
 44.045 273
 44.050 276
 44.055 289
 44.060 301
 44.065 299
 44.070 321
 44.075 312
 44.080 311
 44.085 336
 44.090 317
 44.095 307
 44.100 265
 44.105 261
 44.110 217
 44.115 220
 44.120 185
 44.125 188
 44.130 209
 44.135 208
 44.140 217
 44.145 232
 44.150 250
 44.155 254
 44.160 279
 44.165 285
 44.170 268
 44.175 245
 44.180 232
 44.185 200
 44.190 183
 44.195 185
 44.200 207
 44.205 218
 44.210 236
 44.215 250
 44.220 229
 44.225 251
 44.230 228
 44.235 221
 44.240 214
 44.245 239
 44.250 230
 44.255 281
 44.260 281
 44.265 290
 44.270 286
 44.275 291
 44.280 264
 44.285 293
 44.290 396
 44.295 464
 44.300 502
 44.305 469
 44.310 485
 44.315 418
 44.320 366
 44.325 329
 44.330 318
 44.335 330
 44.340 324
 44.345 286
 44.350 299
 44.355 244
 44.360 293
 44.365 263
 44.370 306
 44.375 296
 44.380 267
 44.385 268
 44.390 213
 44.395 202
 44.400 202
 44.405 204
 44.410 186
 44.415 202
 44.420 207
 44.425 198
 44.430 211
 44.435 212
 44.440 210
 44.445 183
 44.450 164
 44.455 178
 44.460 187
 44.465 165
 44.470 193
 44.475 170
 44.480 198
 44.485 196
 44.490 190
 44.495 194
 44.500 233
 44.505 221
 44.510 221
 44.515 252
 44.520 246
 44.525 257
 44.530 244
 44.535 221
 44.540 260
 44.545 292
 44.550 294
 44.555 309
 44.560 292
 44.565 262
 44.570 270
 44.575 255
 44.580 210
 44.585 219
 44.590 219
 44.595 227
 44.600 223
 44.605 219
 44.610 198
 44.615 169
 44.620 211
 44.625 236
 44.630 221
 44.635 247
 44.640 225
 44.645 226
 44.650 267
 44.655 270
 44.660 276
 44.665 263
 44.670 259
 44.675 244
 44.680 204
 44.685 172
 44.690 224
 44.695 191
 44.700 194
 44.705 211
 44.710 215
 44.715 221
 44.720 287
 44.725 282
 44.730 299
 44.735 285
 44.740 277
 44.745 290
 44.750 258
 44.755 264
 44.760 227
 44.765 213
 44.770 149
 44.775 162
 44.780 202
 44.785 205
 44.790 167
 44.795 188
 44.800 168
 44.805 213
 44.810 188
 44.815 215
 44.820 202
 44.825 189
 44.830 180
 44.835 177
 44.840 196
 44.845 174
 44.850 172
 44.855 153
 44.860 178
 44.865 167
 44.870 174
 44.875 195
 44.880 185
 44.885 204
 44.890 168
 44.895 184
 44.900 178
 44.905 147
 44.910 155
 44.915 151
 44.920 140
 44.925 162
 44.930 155
 44.935 162
 44.940 185
 44.945 177
 44.950 207
 44.955 221
 44.960 243
 44.965 222
 44.970 223
 44.975 219
 44.980 212
 44.985 216
 44.990 226
 44.995 218
 45.000 200
 45.005 243
 45.010 273
 45.015 309
 45.020 329
 45.025 279
 45.030 271
 45.035 264
 45.040 208
 45.045 225
 45.050 195
 45.055 204
 45.060 222
 45.065 223
 45.070 249
 45.075 244
 45.080 268
 45.085 255
 45.090 198
 45.095 240
 45.100 206
 45.105 211
 45.110 223
 45.115 201
 45.120 217
 45.125 212
 45.130 207
 45.135 217
 45.140 217
 45.145 169
 45.150 198
 45.155 227
 45.160 219
 45.165 273
 45.170 289
 45.175 312
 45.180 305
 45.185 305
 45.190 315
 45.195 315
 45.200 287
 45.205 260
 45.210 241
 45.215 215
 45.220 202
 45.225 187
 45.230 203
 45.235 187
 45.240 229
 45.245 187
 45.250 202
 45.255 208
 45.260 211
 45.265 193
 45.270 163
 45.275 201
 45.280 196
 45.285 200
 45.290 222
 45.295 202
 45.300 205
 45.305 187
 45.310 203
 45.315 195
 45.320 216
 45.325 213
 45.330 249
 45.335 275
 45.340 337
 45.345 362
 45.350 433
 45.355 396
 45.360 319
 45.365 304
 45.370 264
 45.375 298
 45.380 297
 45.385 289
 45.390 320
 45.395 299
 45.400 249
 45.405 263
 45.410 251
 45.415 217
 45.420 264
 45.425 235
 45.430 169
 45.435 172
 45.440 185
 45.445 214
 45.450 191
 45.455 201
 45.460 255
 45.465 304
 45.470 305
 45.475 335
 45.480 332
 45.485 310
 45.490 263
 45.495 287
 45.500 241
 45.505 207
 45.510 196
 45.515 186
 45.520 193
 45.525 183
 45.530 166
 45.535 167
 45.540 185
 45.545 196
 45.550 227
 45.555 231
 45.560 247
 45.565 263
 45.570 230
 45.575 202
 45.580 161
 45.585 176
 45.590 175
 45.595 154
 45.600 171
 45.605 167
 45.610 164
 45.615 181
 45.620 162
 45.625 147
 45.630 149
 45.635 130
 45.640 174
 45.645 179
 45.650 157
 45.655 194
 45.660 165
 45.665 179
 45.670 165
 45.675 192
 45.680 184
 45.685 221
 45.690 227
 45.695 239
 45.700 278
 45.705 314
 45.710 299
 45.715 260
 45.720 233
 45.725 234
 45.730 211
 45.735 169
 45.740 171
 45.745 161
 45.750 161
 45.755 170
 45.760 166
 45.765 188
 45.770 167
 45.775 161
 45.780 164
 45.785 173
 45.790 197
 45.795 225
 45.800 209
 45.805 263
 45.810 292
 45.815 338
 45.820 377
 45.825 369
 45.830 339
 45.835 361
 45.840 306
 45.845 282
 45.850 265
 45.855 252
 45.860 277
 45.865 266
 45.870 352
 45.875 374
 45.880 459
 45.885 588
 45.890 659
 45.895 631
 45.900 546
 45.905 475
 45.910 380
 45.915 322
 45.920 308
 45.925 269
 45.930 253
 45.935 257
 45.940 271
 45.945 293
 45.950 305
 45.955 252
 45.960 259
 45.965 265
 45.970 264
 45.975 273
 45.980 264
 45.985 239
 45.990 236
 45.995 234
 46.000 212
 46.005 208
 46.010 229
 46.015 197
 46.020 272
 46.025 280
 46.030 296
 46.035 319
 46.040 348
 46.045 334
 46.050 363
 46.055 348
 46.060 327
 46.065 295
 46.070 266
 46.075 256
 46.080 223
 46.085 217
 46.090 205
 46.095 234
 46.100 192
 46.105 207
 46.110 245
 46.115 285
 46.120 302
 46.125 356
 46.130 304
 46.135 304
 46.140 297
 46.145 305
 46.150 346
 46.155 331
 46.160 379
 46.165 418
 46.170 473
 46.175 447
 46.180 430
 46.185 365
 46.190 303
 46.195 284
 46.200 249
 46.205 202
 46.210 189
 46.215 184
 46.220 210
 46.225 237
 46.230 265
 46.235 258
 46.240 277
 46.245 277
 46.250 291
 46.255 293
 46.260 295
 46.265 324
 46.270 279
 46.275 332
 46.280 319
 46.285 304
 46.290 313
 46.295 342
 46.300 279
 46.305 301
 46.310 322
 46.315 324
 46.320 392
 46.325 364
 46.330 398
 46.335 362
 46.340 388
 46.345 324
 46.350 241
 46.355 242
 46.360 218
 46.365 198
 46.370 188
 46.375 171
 46.380 186
 46.385 182
 46.390 179
 46.395 156
 46.400 168
 46.405 150
 46.410 197
 46.415 173
 46.420 161
 46.425 198
 46.430 223
 46.435 245
 46.440 268
 46.445 289
 46.450 272
 46.455 315
 46.460 280
 46.465 248
 46.470 242
 46.475 213
 46.480 165
 46.485 179
 46.490 170
 46.495 178
 46.500 175
 46.505 169
 46.510 171
 46.515 167
 46.520 155
 46.525 159
 46.530 172
 46.535 179
 46.540 192
 46.545 198
 46.550 178
 46.555 188
 46.560 209
 46.565 178
 46.570 164
 46.575 159
 46.580 148
 46.585 150
 46.590 173
 46.595 179
 46.600 189
 46.605 195
 46.610 181
 46.615 183
 46.620 220
 46.625 173
 46.630 188
 46.635 207
 46.640 188
 46.645 174
 46.650 159
 46.655 155
 46.660 151
 46.665 145
 46.670 167
 46.675 145
 46.680 167
 46.685 159
 46.690 148
 46.695 136
 46.700 165
 46.705 156
 46.710 161
 46.715 144
 46.720 168
 46.725 175
 46.730 180
 46.735 176
 46.740 196
 46.745 165
 46.750 222
 46.755 220
 46.760 294
 46.765 247
 46.770 300
 46.775 314
 46.780 339
 46.785 365
 46.790 319
 46.795 321
 46.800 303
 46.805 264
 46.810 245
 46.815 222
 46.820 222
 46.825 223
 46.830 207
 46.835 190
 46.840 192
 46.845 213
 46.850 199
 46.855 204
 46.860 242
 46.865 255
 46.870 295
 46.875 264
 46.880 242
 46.885 236
 46.890 223
 46.895 182
 46.900 196
 46.905 187
 46.910 183
 46.915 194
 46.920 175
 46.925 201
 46.930 219
 46.935 221
 46.940 204
 46.945 201
 46.950 204
 46.955 163
 46.960 159
 46.965 179
 46.970 159
 46.975 189
 46.980 166
 46.985 185
 46.990 201
 46.995 184
 47.000 225
 47.005 227
 47.010 252
 47.015 269
 47.020 254
 47.025 249
 47.030 204
 47.035 176
 47.040 172
 47.045 167
 47.050 169
 47.055 156
 47.060 133
 47.065 167
 47.070 168
 47.075 164
 47.080 176
 47.085 183
 47.090 175
 47.095 185
 47.100 182
 47.105 161
 47.110 178
 47.115 151
 47.120 143
 47.125 152
 47.130 147
 47.135 157
 47.140 163
 47.145 176
 47.150 192
 47.155 162
 47.160 175
 47.165 187
 47.170 183
 47.175 195
 47.180 180
 47.185 226
 47.190 237
 47.195 269
 47.200 283
 47.205 304
 47.210 331
 47.215 286
 47.220 288
 47.225 265
 47.230 294
 47.235 302
 47.240 311
 47.245 282
 47.250 298
 47.255 278
 47.260 243
 47.265 226
 47.270 190
 47.275 205
 47.280 172
 47.285 183
 47.290 195
 47.295 186
 47.300 195
 47.305 209
 47.310 180
 47.315 171
 47.320 167
 47.325 169
 47.330 164
 47.335 190
 47.340 151
 47.345 159
 47.350 188
 47.355 188
 47.360 189
 47.365 204
 47.370 193
 47.375 188
 47.380 197
 47.385 207
 47.390 242
 47.395 236
 47.400 283
 47.405 363
 47.410 355
 47.415 341
 47.420 334
 47.425 270
 47.430 261
 47.435 277
 47.440 267
 47.445 261
 47.450 212
 47.455 223
 47.460 224
 47.465 211
 47.470 232
 47.475 237
 47.480 220
 47.485 198
 47.490 250
 47.495 237
 47.500 298
 47.505 283
 47.510 288
 47.515 326
 47.520 400
 47.525 489
 47.530 529
 47.535 623
 47.540 623
 47.545 597
 47.550 557
 47.555 520
 47.560 486
 47.565 351
 47.570 346
 47.575 322
 47.580 289
 47.585 266
 47.590 272
 47.595 279
 47.600 296
 47.605 330
 47.610 352
 47.615 415
 47.620 433
 47.625 498
 47.630 444
 47.635 423
 47.640 311
 47.645 292
 47.650 255
 47.655 238
 47.660 214
 47.665 188
 47.670 199
 47.675 201
 47.680 218
 47.685 214
 47.690 230
 47.695 212
 47.700 248
 47.705 260
 47.710 255
 47.715 351
 47.720 408
 47.725 458
 47.730 551
 47.735 628
 47.740 637
 47.745 685
 47.750 740
 47.755 675
 47.760 663
 47.765 630
 47.770 525
 47.775 529
 47.780 425
 47.785 356
 47.790 365
 47.795 314
 47.800 349
 47.805 363
 47.810 365
 47.815 409
 47.820 402
 47.825 484
 47.830 433
 47.835 397
 47.840 391
 47.845 337
 47.850 248
 47.855 278
 47.860 254
 47.865 255
 47.870 258
 47.875 304
 47.880 316
 47.885 368
 47.890 384
 47.895 358
 47.900 355
 47.905 363
 47.910 354
 47.915 398
 47.920 374
 47.925 365
 47.930 364
 47.935 401
 47.940 320
 47.945 302
 47.950 303
 47.955 303
 47.960 337
 47.965 379
 47.970 417
 47.975 471
 47.980 533
 47.985 572
 47.990 683
 47.995 712
 48.000 732
 48.005 783
 48.010 750
 48.015 717
 48.020 663
 48.025 552
 48.030 522
 48.035 450
 48.040 360
 48.045 326
 48.050 325
 48.055 283
 48.060 273
 48.065 253
 48.070 271
 48.075 233
 48.080 281
 48.085 253
 48.090 280
 48.095 275
 48.100 269
 48.105 240
 48.110 272
 48.115 229
 48.120 245
 48.125 224
 48.130 237
 48.135 258
 48.140 289
 48.145 289
 48.150 308
 48.155 369
 48.160 311
 48.165 328
 48.170 297
 48.175 339
 48.180 408
 48.185 420
 48.190 464
 48.195 483
 48.200 529
 48.205 524
 48.210 504
 48.215 513
 48.220 478
 48.225 392
 48.230 443
 48.235 501
 48.240 523
 48.245 446
 48.250 455
 48.255 442
 48.260 380
 48.265 406
 48.270 429
 48.275 513
 48.280 560
 48.285 500
 48.290 496
 48.295 449
 48.300 400
 48.305 340
 48.310 339
 48.315 315
 48.320 245
 48.325 238
 48.330 245
 48.335 274
 48.340 338
 48.345 295
 48.350 302
 48.355 278
 48.360 246
 48.365 223
 48.370 230
 48.375 221
 48.380 217
 48.385 238
 48.390 251
 48.395 234
 48.400 281
 48.405 303
 48.410 302
 48.415 280
 48.420 272
 48.425 261
 48.430 222
 48.435 217
 48.440 210
 48.445 212
 48.450 235
 48.455 267
 48.460 228
 48.465 251
 48.470 251
 48.475 224
 48.480 240
 48.485 235
 48.490 243
 48.495 205
 48.500 190
 48.505 211
 48.510 242
 48.515 215
 48.520 201
 48.525 183
 48.530 163
 48.535 158
 48.540 181
 48.545 150
 48.550 164
 48.555 169
 48.560 190
 48.565 190
 48.570 179
 48.575 174
 48.580 165
 48.585 187
 48.590 165
 48.595 171
 48.600 206
 48.605 226
 48.610 233
 48.615 232
 48.620 297
 48.625 298
 48.630 250
 48.635 278
 48.640 281
 48.645 220
 48.650 215
 48.655 213
 48.660 208
 48.665 233
 48.670 223
 48.675 209
 48.680 203
 48.685 233
 48.690 234
 48.695 290
 48.700 273
 48.705 252
 48.710 226
 48.715 222
 48.720 225
 48.725 232
 48.730 198
 48.735 191
 48.740 179
 48.745 201
 48.750 198
 48.755 177
 48.760 172
 48.765 172
 48.770 168
 48.775 181
 48.780 205
 48.785 226
 48.790 219
 48.795 234
 48.800 259
 48.805 317
 48.810 295
 48.815 280
 48.820 300
 48.825 259
 48.830 231
 48.835 229
 48.840 210
 48.845 235
 48.850 222
 48.855 190
 48.860 196
 48.865 196
 48.870 233
 48.875 246
 48.880 213
 48.885 204
 48.890 195
 48.895 173
 48.900 179
 48.905 157
 48.910 162
 48.915 176
 48.920 195
 48.925 198
 48.930 179
 48.935 179
 48.940 211
 48.945 176
 48.950 215
 48.955 199
 48.960 187
 48.965 205
 48.970 226
 48.975 200
 48.980 193
 48.985 215
 48.990 235
 48.995 229
 49.000 225
 49.005 272
 49.010 253
 49.015 249
 49.020 317
 49.025 319
 49.030 313
 49.035 347
 49.040 293
 49.045 298
 49.050 233
 49.055 251
 49.060 273
 49.065 291
 49.070 266
 49.075 295
 49.080 276
 49.085 243
 49.090 235
 49.095 193
 49.100 165
 49.105 197
 49.110 144
 49.115 199
 49.120 162
 49.125 203
 49.130 190
 49.135 219
 49.140 231
 49.145 245
 49.150 249
 49.155 245
 49.160 276
 49.165 254
 49.170 231
 49.175 201
 49.180 231
 49.185 202
 49.190 233
 49.195 206
 49.200 240
 49.205 234
 49.210 257
 49.215 233
 49.220 243
 49.225 279
 49.230 264
 49.235 296
 49.240 272
 49.245 321
 49.250 361
 49.255 328
 49.260 319
 49.265 272
 49.270 256
 49.275 219
 49.280 201
 49.285 179
 49.290 174
 49.295 159
 49.300 169
 49.305 179
 49.310 163
 49.315 169
 49.320 163
 49.325 170
 49.330 149
 49.335 166
 49.340 171
 49.345 162
 49.350 168
 49.355 157
 49.360 144
 49.365 153
 49.370 172
 49.375 164
 49.380 161
 49.385 173
 49.390 155
 49.395 170
 49.400 182
 49.405 182
 49.410 220
 49.415 222
 49.420 223
 49.425 263
 49.430 268
 49.435 275
 49.440 244
 49.445 221
 49.450 211
 49.455 211
 49.460 210
 49.465 214
 49.470 210
 49.475 234
 49.480 231
 49.485 258
 49.490 222
 49.495 204
 49.500 196
 49.505 201
 49.510 188
 49.515 166
 49.520 180
 49.525 143
 49.530 174
 49.535 163
 49.540 156
 49.545 164
 49.550 155
 49.555 187
 49.560 190
 49.565 180
 49.570 182
 49.575 183
 49.580 179
 49.585 229
 49.590 224
 49.595 255
 49.600 256
 49.605 240
 49.610 208
 49.615 197
 49.620 169
 49.625 197
 49.630 174
 49.635 173
 49.640 165
 49.645 178
 49.650 154
 49.655 162
 49.660 158
 49.665 171
 49.670 171
 49.675 170
 49.680 157
 49.685 167
 49.690 163
 49.695 177
 49.700 157
 49.705 164
 49.710 148
 49.715 137
 49.720 139
 49.725 162
 49.730 140
 49.735 126
 49.740 109
 49.745 131
 49.750 143
 49.755 129
 49.760 122
 49.765 150
 49.770 134
 49.775 152
 49.780 152
 49.785 149
 49.790 154
 49.795 142
 49.800 146
 49.805 187
 49.810 162
 49.815 157
 49.820 178
 49.825 154
 49.830 157
 49.835 158
 49.840 149
 49.845 139
 49.850 170
 49.855 144
 49.860 146
 49.865 180
 49.870 190
 49.875 200
 49.880 181
 49.885 197
 49.890 173
 49.895 227
 49.900 221
 49.905 205
 49.910 213
 49.915 150
 49.920 173
 49.925 157
 49.930 176
 49.935 170
 49.940 181
 49.945 168
 49.950 174
 49.955 166
 49.960 167
 49.965 165
 49.970 176
 49.975 172
 49.980 165
 49.985 161
 49.990 177
 49.995 176
 50.000 172
 50.005 160
 50.010 173
 50.015 127
 50.020 136
 50.025 172
 50.030 154
 50.035 147
 50.040 174
 50.045 158
 50.050 182
 50.055 166
 50.060 170
 50.065 159
 50.070 168
 50.075 166
 50.080 194
 50.085 177
 50.090 180
 50.095 203
 50.100 206
 50.105 202
 50.110 204
 50.115 182
 50.120 215
 50.125 196
 50.130 212
 50.135 183
 50.140 189
 50.145 178
 50.150 182
 50.155 175
 50.160 214
 50.165 196
 50.170 244
 50.175 254
 50.180 275
 50.185 248
 50.190 255
 50.195 230
 50.200 243
 50.205 235
 50.210 205
 50.215 188
 50.220 178
 50.225 186
 50.230 215
 50.235 218
 50.240 200
 50.245 219
 50.250 198
 50.255 185
 50.260 225
 50.265 204
 50.270 144
 50.275 192
 50.280 203
 50.285 166
 50.290 200
 50.295 177
 50.300 173
 50.305 169
 50.310 167
 50.315 177
 50.320 168
 50.325 152
 50.330 171
 50.335 169
 50.340 163
 50.345 170
 50.350 182
 50.355 181
 50.360 196
 50.365 231
 50.370 216
 50.375 257
 50.380 263
 50.385 272
 50.390 329
 50.395 298
 50.400 291
 50.405 328
 50.410 308
 50.415 342
 50.420 365
 50.425 380
 50.430 416
 50.435 383
 50.440 328
 50.445 378
 50.450 324
 50.455 336
 50.460 290
 50.465 267
 50.470 247
 50.475 246
 50.480 243
 50.485 238
 50.490 289
 50.495 271
 50.500 277
 50.505 304
 50.510 292
 50.515 281
 50.520 299
 50.525 279
 50.530 269
 50.535 239
 50.540 230
 50.545 200
 50.550 206
 50.555 229
 50.560 231
 50.565 229
 50.570 213
 50.575 219
 50.580 232
 50.585 193
 50.590 231
 50.595 273
 50.600 243
 50.605 271
 50.610 284
 50.615 282
 50.620 264
 50.625 240
 50.630 264
 50.635 229
 50.640 196
 50.645 203
 50.650 201
 50.655 214
 50.660 204
 50.665 229
 50.670 218
 50.675 250
 50.680 241
 50.685 281
 50.690 301
 50.695 303
 50.700 291
 50.705 320
 50.710 274
 50.715 216
 50.720 230
 50.725 209
 50.730 168
 50.735 195
 50.740 164
 50.745 197
 50.750 211
 50.755 229
 50.760 230
 50.765 271
 50.770 290
 50.775 280
 50.780 289
 50.785 257
 50.790 274
 50.795 292
 50.800 293
 50.805 292
 50.810 299
 50.815 244
 50.820 249
 50.825 236
 50.830 214
 50.835 175
 50.840 177
 50.845 194
 50.850 198
 50.855 182
 50.860 187
 50.865 183
 50.870 216
 50.875 195
 50.880 226
 50.885 210
 50.890 194
 50.895 221
 50.900 208
 50.905 197
 50.910 188
 50.915 188
 50.920 184
 50.925 217
 50.930 221
 50.935 203
 50.940 205
 50.945 250
 50.950 206
 50.955 214
 50.960 211
 50.965 248
 50.970 239
 50.975 217
 50.980 255
 50.985 224
 50.990 219
 50.995 224
 51.000 242
 51.005 199
 51.010 191
 51.015 205
 51.020 204
 51.025 205
 51.030 201
 51.035 190
 51.040 188
 51.045 202
 51.050 171
 51.055 160
 51.060 143
 51.065 138
 51.070 160
 51.075 140
 51.080 165
 51.085 170
 51.090 161
 51.095 160
 51.100 151
 51.105 186
 51.110 168
 51.115 192
 51.120 178
 51.125 214
 51.130 237
 51.135 234
 51.140 244
 51.145 215
 51.150 207
 51.155 182
 51.160 157
 51.165 153
 51.170 170
 51.175 150
 51.180 194
 51.185 161
 51.190 180
 51.195 143
 51.200 161
 51.205 189
 51.210 181
 51.215 183
 51.220 213
 51.225 201
 51.230 207
 51.235 229
 51.240 232
 51.245 229
 51.250 267
 51.255 243
 51.260 263
 51.265 292
 51.270 265
 51.275 327
 51.280 287
 51.285 271
 51.290 299
 51.295 269
 51.300 283
 51.305 252
 51.310 209
 51.315 211
 51.320 215
 51.325 229
 51.330 242
 51.335 255
 51.340 247
 51.345 211
 51.350 220
 51.355 218
 51.360 184
 51.365 174
 51.370 176
 51.375 164
 51.380 172
 51.385 175
 51.390 162
 51.395 199
 51.400 220
 51.405 170
 51.410 207
 51.415 205
 51.420 167
 51.425 177
 51.430 165
 51.435 186
 51.440 175
 51.445 180
 51.450 186
 51.455 218
 51.460 218
 51.465 232
 51.470 264
 51.475 218
 51.480 250
 51.485 213
 51.490 230
 51.495 231
 51.500 214
 51.505 234
 51.510 215
 51.515 190
 51.520 174
 51.525 162
 51.530 145
 51.535 175
 51.540 172
 51.545 182
 51.550 186
 51.555 176
 51.560 191
 51.565 196
 51.570 197
 51.575 166
 51.580 188
 51.585 167
 51.590 155
 51.595 174
 51.600 134
 51.605 163
 51.610 181
 51.615 182
 51.620 187
 51.625 188
 51.630 185
 51.635 210
 51.640 190
 51.645 195
 51.650 181
 51.655 182
 51.660 157
 51.665 178
 51.670 147
 51.675 136
 51.680 148
 51.685 133
 51.690 134
 51.695 159
 51.700 162
 51.705 176
 51.710 153
 51.715 204
 51.720 178
 51.725 197
 51.730 205
 51.735 177
 51.740 181
 51.745 164
 51.750 163
 51.755 167
 51.760 168
 51.765 138
 51.770 153
 51.775 143
 51.780 152
 51.785 190
 51.790 153
 51.795 172
 51.800 182
 51.805 179
 51.810 205
 51.815 184
 51.820 186
 51.825 228
 51.830 220
 51.835 252
 51.840 293
 51.845 301
 51.850 252
 51.855 266
 51.860 241
 51.865 280
 51.870 261
 51.875 252
 51.880 238
 51.885 250
 51.890 254
 51.895 199
 51.900 180
 51.905 219
 51.910 240
 51.915 237
 51.920 260
 51.925 271
 51.930 278
 51.935 258
 51.940 237
 51.945 230
 51.950 212
 51.955 260
 51.960 254
 51.965 297
 51.970 292
 51.975 291
 51.980 287
 51.985 301
 51.990 315
 51.995 333
 52.000 315
 52.005 300
 52.010 264
 52.015 295
 52.020 232
 52.025 210
 52.030 197
 52.035 202
 52.040 197
 52.045 198
 52.050 210
 52.055 219
 52.060 190
 52.065 217
 52.070 231
 52.075 205
 52.080 229
 52.085 269
 52.090 234
 52.095 231
 52.100 232
 52.105 204
 52.110 209
 52.115 199
 52.120 226
 52.125 254
 52.130 238
 52.135 230
 52.140 234
 52.145 246
 52.150 236
 52.155 243
 52.160 210
 52.165 265
 52.170 242
 52.175 251
 52.180 188
 52.185 222
 52.190 220
 52.195 181
 52.200 223
 52.205 194
 52.210 226
 52.215 231
 52.220 242
 52.225 224
 52.230 236
 52.235 226
 52.240 203
 52.245 226
 52.250 211
 52.255 221
 52.260 221
 52.265 246
 52.270 240
 52.275 234
 52.280 214
 52.285 238
 52.290 262
 52.295 261
 52.300 260
 52.305 257
 52.310 255
 52.315 240
 52.320 218
 52.325 218
 52.330 264
 52.335 245
 52.340 264
 52.345 243
 52.350 279
 52.355 274
 52.360 259
 52.365 289
 52.370 213
 52.375 238
 52.380 205
 52.385 227
 52.390 222
 52.395 220
 52.400 254
 52.405 255
 52.410 297
 52.415 263
 52.420 314
 52.425 260
 52.430 287
 52.435 287
 52.440 261
 52.445 250
 52.450 245
 52.455 224
 52.460 197
 52.465 190
 52.470 187
 52.475 173
 52.480 210
 52.485 182
 52.490 203
 52.495 223
 52.500 205
 52.505 212
 52.510 201
 52.515 205
 52.520 183
 52.525 200
 52.530 171
 52.535 176
 52.540 160
 52.545 175
 52.550 200
 52.555 181
 52.560 204
 52.565 223
 52.570 258
 52.575 258
 52.580 333
 52.585 313
 52.590 323
 52.595 311
 52.600 263
 52.605 265
 52.610 252
 52.615 258
 52.620 235
 52.625 213
 52.630 220
 52.635 226
 52.640 219
 52.645 213
 52.650 203
 52.655 216
 52.660 302
 52.665 327
 52.670 329
 52.675 355
 52.680 392
 52.685 380
 52.690 349
 52.695 353
 52.700 337
 52.705 284
 52.710 300
 52.715 282
 52.720 237
 52.725 238
 52.730 229
 52.735 231
 52.740 200
 52.745 197
 52.750 203
 52.755 208
 52.760 222
 52.765 235
 52.770 262
 52.775 336
 52.780 318
 52.785 294
 52.790 257
 52.795 235
 52.800 230
 52.805 213
 52.810 164
 52.815 189
 52.820 155
 52.825 157
 52.830 148
 52.835 167
 52.840 174
 52.845 163
 52.850 168
 52.855 175
 52.860 153
 52.865 159
 52.870 149
 52.875 166
 52.880 157
 52.885 179
 52.890 184
 52.895 178
 52.900 198
 52.905 214
 52.910 235
 52.915 245
 52.920 233
 52.925 234
 52.930 217
 52.935 216
 52.940 202
 52.945 198
 52.950 217
 52.955 225
 52.960 181
 52.965 204
 52.970 176
 52.975 172
 52.980 176
 52.985 183
 52.990 186
 52.995 172
 53.000 208
 53.005 185
 53.010 205
 53.015 220
 53.020 207
 53.025 234
 53.030 242
 53.035 222
 53.040 229
 53.045 247
 53.050 245
 53.055 214
 53.060 206
 53.065 183
 53.070 189
 53.075 170
 53.080 180
 53.085 191
 53.090 169
 53.095 192
 53.100 197
 53.105 210
 53.110 192
 53.115 201
 53.120 234
 53.125 246
 53.130 262
 53.135 271
 53.140 257
 53.145 268
 53.150 269
 53.155 235
 53.160 243
 53.165 266
 53.170 226
 53.175 208
 53.180 242
 53.185 207
 53.190 225
 53.195 219
 53.200 215
 53.205 215
 53.210 201
 53.215 221
 53.220 172
 53.225 224
 53.230 220
 53.235 227
 53.240 192
 53.245 215
 53.250 191
 53.255 181
 53.260 170
 53.265 156
 53.270 166
 53.275 159
 53.280 187
 53.285 191
 53.290 170
 53.295 161
 53.300 169
 53.305 179
 53.310 179
 53.315 176
 53.320 165
 53.325 158
 53.330 183
 53.335 208
 53.340 205
 53.345 192
 53.350 262
 53.355 266
 53.360 328
 53.365 320
 53.370 308
 53.375 340
 53.380 357
 53.385 304
 53.390 284
 53.395 283
 53.400 231
 53.405 210
 53.410 226
 53.415 217
 53.420 190
 53.425 171
 53.430 148
 53.435 159
 53.440 162
 53.445 155
 53.450 167
 53.455 148
 53.460 162
 53.465 173
 53.470 189
 53.475 192
 53.480 182
 53.485 202
 53.490 197
 53.495 213
 53.500 212
 53.505 188
 53.510 202
 53.515 203
 53.520 243
 53.525 247
 53.530 279
 53.535 217
 53.540 227
 53.545 192
 53.550 206
 53.555 197
 53.560 169
 53.565 167
 53.570 178
 53.575 223
 53.580 213
 53.585 228
 53.590 246
 53.595 252
 53.600 260
 53.605 264
 53.610 260
 53.615 309
 53.620 255
 53.625 273
 53.630 228
 53.635 285
 53.640 262
 53.645 258
 53.650 257
 53.655 289
 53.660 278
 53.665 269
 53.670 273
 53.675 257
 53.680 260
 53.685 232
 53.690 219
 53.695 192
 53.700 219
 53.705 217
 53.710 231
 53.715 197
 53.720 209
 53.725 239
 53.730 258
 53.735 292
 53.740 298
 53.745 313
 53.750 286
 53.755 279
 53.760 257
 53.765 253
 53.770 238
 53.775 222
 53.780 212
 53.785 174
 53.790 188
 53.795 189
 53.800 180
 53.805 213
 53.810 253
 53.815 175
 53.820 221
 53.825 252
 53.830 261
 53.835 272
 53.840 309
 53.845 297
 53.850 273
 53.855 263
 53.860 225
 53.865 254
 53.870 244
 53.875 186
 53.880 227
 53.885 227
 53.890 233
 53.895 218
 53.900 238
 53.905 226
 53.910 246
 53.915 237
 53.920 229
 53.925 225
 53.930 230
 53.935 232
 53.940 288
 53.945 252
 53.950 242
 53.955 246
 53.960 235
 53.965 228
 53.970 209
 53.975 230
 53.980 198
 53.985 213
 53.990 244
 53.995 234
 54.000 218
 54.005 247
 54.010 215
 54.015 220
 54.020 180
 54.025 178
 54.030 187
 54.035 198
 54.040 168
 54.045 140
 54.050 152
 54.055 163
 54.060 155
 54.065 180
 54.070 168
 54.075 177
 54.080 167
 54.085 160
 54.090 164
 54.095 178
 54.100 200
 54.105 197
 54.110 184
 54.115 165
 54.120 165
 54.125 161
 54.130 175
 54.135 182
 54.140 157
 54.145 161
 54.150 184
 54.155 189
 54.160 180
 54.165 201
 54.170 221
 54.175 171
 54.180 181
 54.185 173
 54.190 155
 54.195 158
 54.200 182
 54.205 161
 54.210 150
 54.215 145
 54.220 158
 54.225 171
 54.230 153
 54.235 179
 54.240 164
 54.245 170
 54.250 188
 54.255 147
 54.260 159
 54.265 150
 54.270 179
 54.275 150
 54.280 131
 54.285 131
 54.290 134
 54.295 136
 54.300 158
 54.305 144
 54.310 143
 54.315 161
 54.320 156
 54.325 159
 54.330 178
 54.335 171
 54.340 166
 54.345 194
 54.350 194
 54.355 205
 54.360 215
 54.365 197
 54.370 158
 54.375 181
 54.380 193
 54.385 140
 54.390 158
 54.395 165
 54.400 166
 54.405 167
 54.410 164
 54.415 154
 54.420 190
 54.425 164
 54.430 174
 54.435 181
 54.440 152
 54.445 145
 54.450 201
 54.455 164
 54.460 149
 54.465 133
 54.470 164
 54.475 143
 54.480 154
 54.485 132
 54.490 157
 54.495 162
 54.500 148
 54.505 145
 54.510 150
 54.515 159
 54.520 160
 54.525 144
 54.530 148
 54.535 182
 54.540 180
 54.545 197
 54.550 190
 54.555 206
 54.560 210
 54.565 205
 54.570 194
 54.575 196
 54.580 206
 54.585 176
 54.590 182
 54.595 160
 54.600 164
 54.605 133
 54.610 155
 54.615 160
 54.620 145
 54.625 132
 54.630 174
 54.635 155
 54.640 166
 54.645 144
 54.650 168
 54.655 133
 54.660 170
 54.665 143
 54.670 184
 54.675 193
 54.680 214
 54.685 222
 54.690 232
 54.695 249
 54.700 251
 54.705 278
 54.710 222
 54.715 221
 54.720 227
 54.725 201
 54.730 187
 54.735 190
 54.740 166
 54.745 166
 54.750 174
 54.755 172
 54.760 187
 54.765 161
 54.770 168
 54.775 193
 54.780 155
 54.785 177
 54.790 144
 54.795 139
 54.800 159
 54.805 151
 54.810 147
 54.815 149
 54.820 149
 54.825 157
 54.830 147
 54.835 158
 54.840 153
 54.845 128
 54.850 181
 54.855 164
 54.860 164
 54.865 193
 54.870 208
 54.875 208
 54.880 211
 54.885 203
 54.890 190
 54.895 164
 54.900 156
 54.905 155
 54.910 146
 54.915 162
 54.920 162
 54.925 171
 54.930 162
 54.935 173
 54.940 133
 54.945 164
 54.950 157
 54.955 135
 54.960 144
 54.965 141
 54.970 136
 54.975 140
 54.980 135
 54.985 161
 54.990 149
 54.995 157
 55.000 189
 55.005 196
 55.010 217
 55.015 243
 55.020 231
 55.025 251
 55.030 229
 55.035 235
 55.040 199
 55.045 215
 55.050 169
 55.055 196
 55.060 192
 55.065 168
 55.070 173
 55.075 161
 55.080 156
 55.085 194
 55.090 204
 55.095 189
 55.100 178
 55.105 203
 55.110 233
 55.115 233
 55.120 243
 55.125 273
 55.130 248
 55.135 250
 55.140 238
 55.145 221
 55.150 227
 55.155 205
 55.160 201
 55.165 178
 55.170 193
 55.175 190
 55.180 211
 55.185 208
 55.190 241
 55.195 300
 55.200 314
 55.205 329
 55.210 346
 55.215 335
 55.220 325
 55.225 308
 55.230 268
 55.235 243
 55.240 235
 55.245 224
 55.250 225
 55.255 221
 55.260 230
 55.265 208
 55.270 253
 55.275 213
 55.280 232
 55.285 239
 55.290 234
 55.295 285
 55.300 269
 55.305 244
 55.310 219
 55.315 177
 55.320 204
 55.325 188
 55.330 189
 55.335 177
 55.340 175
 55.345 184
 55.350 174
 55.355 159
 55.360 178
 55.365 163
 55.370 150
 55.375 176
 55.380 184
 55.385 166
 55.390 184
 55.395 175
 55.400 164
 55.405 182
 55.410 165
 55.415 183
 55.420 188
 55.425 179
 55.430 174
 55.435 161
 55.440 159
 55.445 170
 55.450 164
 55.455 157
 55.460 155
 55.465 159
 55.470 173
 55.475 154
 55.480 118
 55.485 155
 55.490 147
 55.495 127
 55.500 152
 55.505 159
 55.510 152
 55.515 163
 55.520 172
 55.525 182
 55.530 160
 55.535 167
 55.540 180
 55.545 170
 55.550 211
 55.555 185
 55.560 218
 55.565 204
 55.570 215
 55.575 228
 55.580 250
 55.585 287
 55.590 302
 55.595 358
 55.600 336
 55.605 358
 55.610 305
 55.615 316
 55.620 325
 55.625 279
 55.630 281
 55.635 249
 55.640 236
 55.645 211
 55.650 211
 55.655 213
 55.660 233
 55.665 231
 55.670 252
 55.675 246
 55.680 251
 55.685 249
 55.690 206
 55.695 217
 55.700 211
 55.705 209
 55.710 232
 55.715 214
 55.720 202
 55.725 213
 55.730 201
 55.735 182
 55.740 161
 55.745 183
 55.750 187
 55.755 174
 55.760 194
 55.765 160
 55.770 168
 55.775 212
 55.780 177
 55.785 175
 55.790 242
 55.795 239
 55.800 251
 55.805 322
 55.810 304
 55.815 367
 55.820 333
 55.825 338
 55.830 298
 55.835 292
 55.840 272
 55.845 296
 55.850 318
 55.855 338
 55.860 323
 55.865 342
 55.870 324
 55.875 320
 55.880 334
 55.885 321
 55.890 321
 55.895 290
 55.900 313
 55.905 261
 55.910 277
 55.915 232
 55.920 226
 55.925 229
 55.930 191
 55.935 204
 55.940 177
 55.945 168
 55.950 167
 55.955 151
 55.960 184
 55.965 161
 55.970 192
 55.975 206
 55.980 221
 55.985 187
 55.990 206
 55.995 207
 56.000 226
 56.005 197
 56.010 217
 56.015 204
 56.020 202
 56.025 190
 56.030 203
 56.035 205
 56.040 230
 56.045 236
 56.050 188
 56.055 214
 56.060 226
 56.065 216
 56.070 211
 56.075 210
 56.080 171
 56.085 179
 56.090 159
 56.095 177
 56.100 157
 56.105 174
 56.110 188
 56.115 194
 56.120 191
 56.125 196
 56.130 203
 56.135 199
 56.140 175
 56.145 216
 56.150 197
 56.155 200
 56.160 205
 56.165 183
 56.170 203
 56.175 199
 56.180 171
 56.185 188
 56.190 179
 56.195 190
 56.200 203
 56.205 215
 56.210 240
 56.215 255
 56.220 270
 56.225 278
 56.230 286
 56.235 294
 56.240 254
 56.245 261
 56.250 224
 56.255 205
 56.260 204
 56.265 214
 56.270 198
 56.275 192
 56.280 180
 56.285 193
 56.290 158
 56.295 221
 56.300 178
 56.305 178
 56.310 179
 56.315 171
 56.320 153
 56.325 173
 56.330 200
 56.335 178
 56.340 181
 56.345 187
 56.350 189
 56.355 193
 56.360 186
 56.365 178
 56.370 188
 56.375 191
 56.380 181
 56.385 212
 56.390 194
 56.395 214
 56.400 207
 56.405 212
 56.410 207
 56.415 170
 56.420 180
 56.425 156
 56.430 165
 56.435 163
 56.440 163
 56.445 164
 56.450 153
 56.455 148
 56.460 149
 56.465 161
 56.470 176
 56.475 157
 56.480 221
 56.485 201
 56.490 222
 56.495 212
 56.500 254
 56.505 249
 56.510 241
 56.515 223
 56.520 199
 56.525 180
 56.530 170
 56.535 207
 56.540 182
 56.545 210
 56.550 188
 56.555 199
 56.560 201
 56.565 225
 56.570 222
 56.575 217
 56.580 206
 56.585 217
 56.590 179
 56.595 197
 56.600 217
 56.605 203
 56.610 188
 56.615 207
 56.620 190
 56.625 223
 56.630 217
 56.635 210
 56.640 186
 56.645 211
 56.650 190
 56.655 231
 56.660 180
 56.665 229
 56.670 187
 56.675 179
 56.680 166
 56.685 169
 56.690 167
 56.695 167
 56.700 173
 56.705 186
 56.710 182
 56.715 176
 56.720 182
 56.725 198
 56.730 172
 56.735 203
 56.740 171
 56.745 148
 56.750 177
 56.755 214
 56.760 211
 56.765 198
 56.770 211
 56.775 180
 56.780 199
 56.785 186
 56.790 190
 56.795 162
 56.800 179
 56.805 209
 56.810 200
 56.815 211
 56.820 232
 56.825 215
 56.830 204
 56.835 202
 56.840 185
 56.845 168
 56.850 165
 56.855 174
 56.860 148
 56.865 177
 56.870 150
 56.875 145
 56.880 139
 56.885 142
 56.890 138
 56.895 134
 56.900 158
 56.905 171
 56.910 154
 56.915 155
 56.920 164
 56.925 165
 56.930 160
 56.935 190
 56.940 156
 56.945 159
 56.950 165
 56.955 147
 56.960 168
 56.965 182
 56.970 228
 56.975 204
 56.980 230
 56.985 231
 56.990 276
 56.995 253
 57.000 264
 57.005 279
 57.010 312
 57.015 294
 57.020 312
 57.025 282
 57.030 275
 57.035 253
 57.040 264
 57.045 224
 57.050 244
 57.055 229
 57.060 172
 57.065 169
 57.070 141
 57.075 164
 57.080 172
 57.085 144
 57.090 151
 57.095 161
 57.100 153
 57.105 153
 57.110 177
 57.115 158
 57.120 180
 57.125 196
 57.130 206
 57.135 183
 57.140 174
 57.145 176
 57.150 186
 57.155 165
 57.160 154
 57.165 145
 57.170 127
 57.175 143
 57.180 154
 57.185 141
 57.190 141
 57.195 152
 57.200 159
 57.205 157
 57.210 160
 57.215 178
 57.220 167
 57.225 183
 57.230 217
 57.235 242
 57.240 247
 57.245 250
 57.250 221
 57.255 184
 57.260 188
 57.265 167
 57.270 160
 57.275 144
 57.280 155
 57.285 138
 57.290 143
 57.295 141
 57.300 140
 57.305 139
 57.310 159
 57.315 140
 57.320 172
 57.325 158
 57.330 184
 57.335 189
 57.340 192
 57.345 199
 57.350 182
 57.355 207
 57.360 201
 57.365 203
 57.370 210
 57.375 252
 57.380 270
 57.385 280
 57.390 273
 57.395 291
 57.400 249
 57.405 239
 57.410 206
 57.415 194
 57.420 172
 57.425 164
 57.430 168
 57.435 161
 57.440 146
 57.445 173
 57.450 185
 57.455 207
 57.460 196
 57.465 215
 57.470 212
 57.475 238
 57.480 268
 57.485 272
 57.490 268
 57.495 254
 57.500 222
 57.505 265
 57.510 236
 57.515 225
 57.520 252
 57.525 254
 57.530 268
 57.535 262
 57.540 257
 57.545 240
 57.550 255
 57.555 257
 57.560 246
 57.565 240
 57.570 268
 57.575 271
 57.580 283
 57.585 268
 57.590 273
 57.595 260
 57.600 270
 57.605 265
 57.610 276
 57.615 286
 57.620 288
 57.625 306
 57.630 266
 57.635 237
 57.640 253
 57.645 254
 57.650 201
 57.655 228
 57.660 241
 57.665 208
 57.670 224
 57.675 229
 57.680 195
 57.685 187
 57.690 222
 57.695 189
 57.700 172
 57.705 169
 57.710 186
 57.715 179
 57.720 165
 57.725 221
 57.730 186
 57.735 176
 57.740 196
 57.745 180
 57.750 184
 57.755 184
 57.760 135
 57.765 144
 57.770 140
 57.775 150
 57.780 139
 57.785 126
 57.790 135
 57.795 152
 57.800 139
 57.805 134
 57.810 146
 57.815 136
 57.820 123
 57.825 130
 57.830 160
 57.835 158
 57.840 170
 57.845 150
 57.850 149
 57.855 164
 57.860 171
 57.865 198
 57.870 220
 57.875 181
 57.880 178
 57.885 196
 57.890 159
 57.895 176
 57.900 166
 57.905 179
 57.910 142
 57.915 148
 57.920 147
 57.925 147
 57.930 169
 57.935 187
 57.940 213
 57.945 175
 57.950 198
 57.955 190
 57.960 218
 57.965 223
 57.970 200
 57.975 205
 57.980 212
 57.985 189
 57.990 200
 57.995 233
 58.000 220
 58.005 204
 58.010 199
 58.015 153
 58.020 187
 58.025 181
 58.030 166
 58.035 204
 58.040 187
 58.045 212
 58.050 225
 58.055 238
 58.060 236
 58.065 185
 58.070 196
 58.075 189
 58.080 166
 58.085 182
 58.090 185
 58.095 192
 58.100 175
 58.105 181
 58.110 173
 58.115 199
 58.120 210
 58.125 217
 58.130 221
 58.135 212
 58.140 190
 58.145 209
 58.150 215
 58.155 219
 58.160 193
 58.165 191
 58.170 210
 58.175 211
 58.180 175
 58.185 162
 58.190 181
 58.195 150
 58.200 163
 58.205 156
 58.210 162
 58.215 135
 58.220 155
 58.225 179
 58.230 195
 58.235 185
 58.240 211
 58.245 221
 58.250 220
 58.255 208
 58.260 229
 58.265 217
 58.270 198
 58.275 203
 58.280 148
 58.285 163
 58.290 177
 58.295 173
 58.300 176
 58.305 174
 58.310 169
 58.315 198
 58.320 207
 58.325 226
 58.330 259
 58.335 237
 58.340 270
 58.345 276
 58.350 262
 58.355 214
 58.360 224
 58.365 193
 58.370 182
 58.375 191
 58.380 169
 58.385 133
 58.390 159
 58.395 155
 58.400 130
 58.405 156
 58.410 152
 58.415 147
 58.420 177
 58.425 135
 58.430 172
 58.435 147
 58.440 163
 58.445 170
 58.450 148
 58.455 155
 58.460 186
 58.465 200
 58.470 189
 58.475 203
 58.480 214
 58.485 222
 58.490 232
 58.495 205
 58.500 211
 58.505 231
 58.510 207
 58.515 207
 58.520 236
 58.525 257
 58.530 223
 58.535 224
 58.540 201
 58.545 173
 58.550 169
 58.555 194
 58.560 179
 58.565 187
 58.570 189
 58.575 177
 58.580 188
 58.585 183
 58.590 151
 58.595 161
 58.600 182
 58.605 165
 58.610 153
 58.615 166
 58.620 145
 58.625 172
 58.630 192
 58.635 171
 58.640 143
 58.645 186
 58.650 167
 58.655 163
 58.660 173
 58.665 166
 58.670 155
 58.675 175
 58.680 181
 58.685 138
 58.690 153
 58.695 153
 58.700 166
 58.705 168
 58.710 191
 58.715 200
 58.720 219
 58.725 206
 58.730 215
 58.735 182
 58.740 216
 58.745 203
 58.750 201
 58.755 183
 58.760 202
 58.765 233
 58.770 231
 58.775 229
 58.780 239
 58.785 229
 58.790 213
 58.795 226
 58.800 203
 58.805 213
 58.810 218
 58.815 237
 58.820 243
 58.825 223
 58.830 255
 58.835 242
 58.840 232
 58.845 204
 58.850 237
 58.855 185
 58.860 178
 58.865 190
 58.870 195
 58.875 200
 58.880 197
 58.885 244
 58.890 228
 58.895 234
 58.900 238
 58.905 205
 58.910 222
 58.915 232
 58.920 236
 58.925 237
 58.930 265
 58.935 262
 58.940 230
 58.945 244
 58.950 189
 58.955 228
 58.960 185
 58.965 205
 58.970 201
 58.975 169
 58.980 153
 58.985 180
 58.990 156
 58.995 153
 59.000 189
 59.005 189
 59.010 198
 59.015 178
 59.020 182
 59.025 204
 59.030 205
 59.035 199
 59.040 180
 59.045 188
 59.050 201
 59.055 175
 59.060 175
 59.065 201
 59.070 213
 59.075 218
 59.080 218
 59.085 220
 59.090 220
 59.095 208
 59.100 192
 59.105 235
 59.110 226
 59.115 234
 59.120 243
 59.125 269
 59.130 241
 59.135 274
 59.140 269
 59.145 297
 59.150 270
 59.155 246
 59.160 228
 59.165 212
 59.170 218
 59.175 204
 59.180 207
 59.185 194
 59.190 199
 59.195 200
 59.200 182
 59.205 176
 59.210 167
 59.215 169
 59.220 181
 59.225 194
 59.230 216
 59.235 227
 59.240 235
 59.245 246
 59.250 256
 59.255 241
 59.260 268
 59.265 206
 59.270 215
 59.275 205
 59.280 196
 59.285 214
 59.290 171
 59.295 188
 59.300 174
 59.305 234
 59.310 189
 59.315 224
 59.320 220
 59.325 213
 59.330 251
 59.335 230
 59.340 236
 59.345 263
 59.350 244
 59.355 329
 59.360 332
 59.365 326
 59.370 335
 59.375 299
 59.380 311
 59.385 280
 59.390 295
 59.395 310
 59.400 318
 59.405 349
 59.410 310
 59.415 323
 59.420 298
 59.425 362
 59.430 328
 59.435 375
 59.440 328
 59.445 333
 59.450 334
 59.455 343
 59.460 277
 59.465 249
 59.470 201
 59.475 209
 59.480 210
 59.485 202
 59.490 192
 59.495 180
 59.500 210
 59.505 218
 59.510 224
 59.515 254
 59.520 257
 59.525 264
 59.530 248
 59.535 247
 59.540 305
 59.545 225
 59.550 243
 59.555 245
 59.560 221
 59.565 247
 59.570 186
 59.575 155
 59.580 192
 59.585 206
 59.590 181
 59.595 201
 59.600 180
 59.605 190
 59.610 184
 59.615 226
 59.620 217
 59.625 244
 59.630 247
 59.635 252
 59.640 219
 59.645 227
 59.650 229
 59.655 221
 59.660 224
 59.665 222
 59.670 230
 59.675 212
 59.680 200
 59.685 189
 59.690 230
 59.695 242
 59.700 237
 59.705 197
 59.710 211
 59.715 180
 59.720 162
 59.725 188
 59.730 157
 59.735 183
 59.740 168
 59.745 156
 59.750 163
 59.755 164
 59.760 204
 59.765 178
 59.770 177
 59.775 202
 59.780 184
 59.785 200
 59.790 173
 59.795 164
 59.800 170
 59.805 206
 59.810 177
 59.815 165
 59.820 194
 59.825 176
 59.830 203
 59.835 203
 59.840 226
 59.845 188
 59.850 188
 59.855 212
 59.860 181
 59.865 184
 59.870 192
 59.875 202
 59.880 191
 59.885 172
 59.890 151
 59.895 167
 59.900 172
 59.905 155
 59.910 163
 59.915 163
 59.920 185
 59.925 186
 59.930 152
 59.935 139
 59.940 171
 59.945 154
 59.950 145
 59.955 153
 59.960 143
 59.965 133
 59.970 144
 59.975 130
 59.980 132
 59.985 129
 59.990 125
 59.995 133
 60.000 142
 60.005 145
 60.010 135
 60.015 162
 60.020 136
 60.025 141
 60.030 165
 60.035 146
 60.040 110
 60.045 132
 60.050 149
 60.055 140
 60.060 162
 60.065 174
 60.070 177
 60.075 183
 60.080 179
 60.085 186
 60.090 176
 60.095 191
 60.100 175
 60.105 193
 60.110 206
 60.115 211
 60.120 203
 60.125 239
 60.130 234
 60.135 224
 60.140 231
 60.145 196
 60.150 209
 60.155 247
 60.160 182
 60.165 228
 60.170 191
 60.175 225
 60.180 225
 60.185 266
 60.190 297
 60.195 294
 60.200 300
 60.205 281
 60.210 295
 60.215 258
 60.220 242
 60.225 208
 60.230 198
 60.235 188
 60.240 160
 60.245 179
 60.250 187
 60.255 144
 60.260 156
 60.265 169
 60.270 149
 60.275 145
 60.280 135
 60.285 169
 60.290 137
 60.295 132
 60.300 135
 60.305 138
 60.310 154
 60.315 141
 60.320 147
 60.325 180
 60.330 169
 60.335 160
 60.340 180
 60.345 172
 60.350 169
 60.355 180
 60.360 180
 60.365 169
 60.370 172
 60.375 145
 60.380 155
 60.385 180
 60.390 165
 60.395 153
 60.400 176
 60.405 196
 60.410 160
 60.415 207
 60.420 214
 60.425 191
 60.430 233
 60.435 223
 60.440 266
 60.445 300
 60.450 307
 60.455 303
 60.460 285
 60.465 331
 60.470 291
 60.475 279
 60.480 250
 60.485 208
 60.490 215
 60.495 178
 60.500 160
 60.505 175
 60.510 156
 60.515 169
 60.520 184
 60.525 162
 60.530 175
 60.535 159
 60.540 183
 60.545 194
 60.550 150
 60.555 182
 60.560 178
 60.565 192
 60.570 198
 60.575 169
 60.580 161
 60.585 150
 60.590 168
 60.595 159
 60.600 161
 60.605 150
 60.610 166
 60.615 190
 60.620 151
 60.625 155
 60.630 171
 60.635 152
 60.640 145
 60.645 162
 60.650 159
 60.655 148
 60.660 166
 60.665 198
 60.670 185
 60.675 195
 60.680 195
 60.685 185
 60.690 208
 60.695 178
 60.700 183
 60.705 190
 60.710 194
 60.715 182
 60.720 252
 60.725 257
 60.730 269
 60.735 220
 60.740 221
 60.745 236
 60.750 214
 60.755 187
 60.760 178
 60.765 187
 60.770 181
 60.775 213
 60.780 190
 60.785 173
 60.790 191
 60.795 183
 60.800 213
 60.805 210
 60.810 233
 60.815 220
 60.820 240
 60.825 295
 60.830 291
 60.835 315
 60.840 302
 60.845 297
 60.850 300
 60.855 254
 60.860 219
 60.865 216
 60.870 192
 60.875 197
 60.880 182
 60.885 174
 60.890 192
 60.895 188
 60.900 186
 60.905 177
 60.910 152
 60.915 187
 60.920 185
 60.925 181
 60.930 187
 60.935 183
 60.940 187
 60.945 211
 60.950 225
 60.955 259
 60.960 262
 60.965 268
 60.970 261
 60.975 290
 60.980 359
 60.985 326
 60.990 327
 60.995 327
 61.000 313
 61.005 294
 61.010 279
 61.015 248
 61.020 218
 61.025 182
 61.030 200
 61.035 182
 61.040 228
 61.045 188
 61.050 230
 61.055 242
 61.060 253
 61.065 250
 61.070 254
 61.075 245
 61.080 224
 61.085 246
 61.090 208
 61.095 221
 61.100 215
 61.105 217
 61.110 219
 61.115 239
 61.120 234
 61.125 241
 61.130 243
 61.135 233
 61.140 246
 61.145 245
 61.150 258
 61.155 244
 61.160 237
 61.165 267
 61.170 242
 61.175 225
 61.180 222
 61.185 203
 61.190 175
 61.195 164
 61.200 150
 61.205 179
 61.210 203
 61.215 209
 61.220 164
 61.225 166
 61.230 175
 61.235 168
 61.240 167
 61.245 178
 61.250 228
 61.255 219
 61.260 181
 61.265 222
 61.270 215
 61.275 210
 61.280 183
 61.285 182
 61.290 153
 61.295 189
 61.300 169
 61.305 188
 61.310 163
 61.315 175
 61.320 170
 61.325 179
 61.330 195
 61.335 184
 61.340 203
 61.345 188
 61.350 223
 61.355 230
 61.360 203
 61.365 228
 61.370 258
 61.375 232
 61.380 240
 61.385 238
 61.390 262
 61.395 227
 61.400 275
 61.405 257
 61.410 286
 61.415 253
 61.420 276
 61.425 256
 61.430 262
 61.435 233
 61.440 249
 61.445 196
 61.450 186
 61.455 178
 61.460 181
 61.465 159
 61.470 164
 61.475 137
 61.480 150
 61.485 145
 61.490 142
 61.495 159
 61.500 146
 61.505 153
 61.510 156
 61.515 138
 61.520 127
 61.525 158
 61.530 128
 61.535 143
 61.540 147
 61.545 163
 61.550 178
 61.555 167
 61.560 186
 61.565 167
 61.570 174
 61.575 173
 61.580 177
 61.585 186
 61.590 157
 61.595 173
 61.600 172
 61.605 165
 61.610 167
 61.615 173
 61.620 183
 61.625 145
 61.630 157
 61.635 190
 61.640 187
 61.645 211
 61.650 203
 61.655 210
 61.660 217
 61.665 221
 61.670 253
 61.675 256
 61.680 268
 61.685 280
 61.690 266
 61.695 254
 61.700 237
 61.705 240
 61.710 218
 61.715 226
 61.720 178
 61.725 217
 61.730 184
 61.735 185
 61.740 181
 61.745 161
 61.750 154
 61.755 161
 61.760 171
 61.765 183
 61.770 199
 61.775 183
 61.780 211
 61.785 224
 61.790 200
 61.795 228
 61.800 197
 61.805 209
 61.810 198
 61.815 180
 61.820 150
 61.825 170
 61.830 180
 61.835 178
 61.840 181
 61.845 171
 61.850 179
 61.855 151
 61.860 182
 61.865 190
 61.870 191
 61.875 204
 61.880 220
 61.885 241
 61.890 273
 61.895 278
 61.900 273
 61.905 262
 61.910 236
 61.915 225
 61.920 232
 61.925 236
 61.930 207
 61.935 155
 61.940 194
 61.945 172
 61.950 194
 61.955 177
 61.960 161
 61.965 179
 61.970 169
 61.975 168
 61.980 165
 61.985 154
 61.990 174
 61.995 147
 62.000 164
 62.005 165
 62.010 165
 62.015 191
 62.020 206
 62.025 192
 62.030 201
 62.035 177
 62.040 191
 62.045 213
 62.050 150
 62.055 172
 62.060 208
 62.065 173
 62.070 172
 62.075 169
 62.080 168
 62.085 156
 62.090 166
 62.095 147
 62.100 162
 62.105 164
 62.110 146
 62.115 142
 62.120 176
 62.125 161
 62.130 146
 62.135 164
 62.140 183
 62.145 171
 62.150 158
 62.155 176
 62.160 167
 62.165 176
 62.170 179
 62.175 170
 62.180 215
 62.185 210
 62.190 196
 62.195 222
 62.200 204
 62.205 212
 62.210 218
 62.215 215
 62.220 230
 62.225 230
 62.230 233
 62.235 243
 62.240 217
 62.245 201
 62.250 182
 62.255 194
 62.260 172
 62.265 155
 62.270 175
 62.275 148
 62.280 156
 62.285 150
 62.290 144
 62.295 151
 62.300 159
 62.305 167
 62.310 174
 62.315 170
 62.320 196
 62.325 210
 62.330 248
 62.335 230
 62.340 268
 62.345 287
 62.350 247
 62.355 248
 62.360 315
 62.365 318
 62.370 268
 62.375 268
 62.380 303
 62.385 271
 62.390 282
 62.395 262
 62.400 280
 62.405 273
 62.410 289
 62.415 263
 62.420 235
 62.425 250
 62.430 229
 62.435 167
 62.440 161
 62.445 161
 62.450 165
 62.455 166
 62.460 192
 62.465 178
 62.470 190
 62.475 189
 62.480 172
 62.485 184
 62.490 212
 62.495 245
 62.500 270
 62.505 274
 62.510 306
 62.515 290
 62.520 282
 62.525 235
 62.530 247
 62.535 224
 62.540 179
 62.545 214
 62.550 214
 62.555 207
 62.560 225
 62.565 217
 62.570 198
 62.575 221
 62.580 208
 62.585 215
 62.590 195
 62.595 209
 62.600 186
 62.605 199
 62.610 198
 62.615 194
 62.620 227
 62.625 189
 62.630 243
 62.635 246
 62.640 235
 62.645 238
 62.650 241
 62.655 230
 62.660 226
 62.665 215
 62.670 198
 62.675 190
 62.680 222
 62.685 223
 62.690 257
 62.695 240
 62.700 224
 62.705 232
 62.710 246
 62.715 218
 62.720 246
 62.725 207
 62.730 194
 62.735 190
 62.740 178
 62.745 197
 62.750 212
 62.755 181
 62.760 194
 62.765 222
 62.770 199
 62.775 223
 62.780 223
 62.785 199
 62.790 200
 62.795 205
 62.800 190
 62.805 172
 62.810 180
 62.815 163
 62.820 168
 62.825 159
 62.830 160
 62.835 143
 62.840 133
 62.845 190
 62.850 193
 62.855 171
 62.860 199
 62.865 164
 62.870 170
 62.875 174
 62.880 162
 62.885 182
 62.890 156
 62.895 181
 62.900 155
 62.905 151
 62.910 171
 62.915 181
 62.920 187
 62.925 176
 62.930 184
 62.935 179
 62.940 197
 62.945 164
 62.950 169
 62.955 173
 62.960 166
 62.965 173
 62.970 168
 62.975 169
 62.980 172
 62.985 178
 62.990 176
 62.995 178
 63.000 180
 63.005 196
 63.010 203
 63.015 182
 63.020 163
 63.025 157
 63.030 151
 63.035 141
 63.040 141
 63.045 170
 63.050 123
 63.055 144
 63.060 133
 63.065 141
 63.070 144
 63.075 174
 63.080 181
 63.085 187
 63.090 200
 63.095 247
 63.100 222
 63.105 256
 63.110 274
 63.115 273
 63.120 317
 63.125 307
 63.130 262
 63.135 254
 63.140 251
 63.145 235
 63.150 227
 63.155 268
 63.160 198
 63.165 214
 63.170 239
 63.175 223
 63.180 200
 63.185 234
 63.190 169
 63.195 170
 63.200 174
 63.205 189
 63.210 194
 63.215 165
 63.220 168
 63.225 152
 63.230 167
 63.235 130
 63.240 140
 63.245 185
 63.250 134
 63.255 145
 63.260 181
 63.265 145
 63.270 157
 63.275 160
 63.280 168
 63.285 154
 63.290 155
 63.295 146
 63.300 135
 63.305 140
 63.310 132
 63.315 127
 63.320 143
 63.325 140
 63.330 109
 63.335 122
 63.340 140
 63.345 118
 63.350 129
 63.355 129
 63.360 139
 63.365 144
 63.370 153
 63.375 152
 63.380 153
 63.385 159
 63.390 151
 63.395 113
 63.400 146
 63.405 156
 63.410 142
 63.415 152
 63.420 151
 63.425 150
 63.430 142
 63.435 160
 63.440 175
 63.445 164
 63.450 166
 63.455 149
 63.460 151
 63.465 172
 63.470 154
 63.475 169
 63.480 188
 63.485 166
 63.490 176
 63.495 188
 63.500 173
 63.505 186
 63.510 204
 63.515 199
 63.520 220
 63.525 210
 63.530 216
 63.535 217
 63.540 229
 63.545 244
 63.550 272
 63.555 247
 63.560 206
 63.565 237
 63.570 212
 63.575 218
 63.580 244
 63.585 241
 63.590 215
 63.595 211
 63.600 208
 63.605 198
 63.610 161
 63.615 153
 63.620 177
 63.625 175
 63.630 170
 63.635 169
 63.640 163
 63.645 163
 63.650 158
 63.655 175
 63.660 181
 63.665 151
 63.670 169
 63.675 150
 63.680 165
 63.685 153
 63.690 182
 63.695 164
 63.700 153
 63.705 147
 63.710 138
 63.715 134
 63.720 141
 63.725 139
 63.730 142
 63.735 133
 63.740 161
 63.745 136
 63.750 134
 63.755 130
 63.760 153
 63.765 142
 63.770 158
 63.775 154
 63.780 153
 63.785 137
 63.790 155
 63.795 163
 63.800 150
 63.805 150
 63.810 143
 63.815 187
 63.820 137
 63.825 157
 63.830 175
 63.835 190
 63.840 188
 63.845 173
 63.850 187
 63.855 175
 63.860 207
 63.865 155
 63.870 156
 63.875 182
 63.880 178
 63.885 146
 63.890 178
 63.895 171
 63.900 142
 63.905 139
 63.910 167
 63.915 166
 63.920 153
 63.925 150
 63.930 144
 63.935 151
 63.940 153
 63.945 169
 63.950 143
 63.955 167
 63.960 156
 63.965 180
 63.970 145
 63.975 142
 63.980 143
 63.985 140
 63.990 159
 63.995 180
 64.000 171
 64.005 197
 64.010 172
 64.015 185
 64.020 178
 64.025 157
 64.030 178
 64.035 154
 64.040 157
 64.045 165
 64.050 162
 64.055 147
 64.060 164
 64.065 150
 64.070 147
 64.075 144
 64.080 162
 64.085 172
 64.090 154
 64.095 154
 64.100 165
 64.105 185
 64.110 180
 64.115 162
 64.120 157
 64.125 194
 64.130 204
 64.135 195
 64.140 184
 64.145 181
 64.150 166
 64.155 160
 64.160 162
 64.165 173
 64.170 177
 64.175 153
 64.180 148
 64.185 156
 64.190 143
 64.195 126
 64.200 143
 64.205 135
 64.210 139
 64.215 162
 64.220 146
 64.225 133
 64.230 156
 64.235 152
 64.240 172
 64.245 171
 64.250 177
 64.255 192
 64.260 177
 64.265 222
 64.270 233
 64.275 207
 64.280 211
 64.285 201
 64.290 223
 64.295 233
 64.300 206
 64.305 225
 64.310 209
 64.315 188
 64.320 193
 64.325 178
 64.330 151
 64.335 153
 64.340 149
 64.345 161
 64.350 159
 64.355 127
 64.360 152
 64.365 145
 64.370 146
 64.375 149
 64.380 169
 64.385 142
 64.390 164
 64.395 161
 64.400 172
 64.405 198
 64.410 210
 64.415 202
 64.420 180
 64.425 187
 64.430 163
 64.435 160
 64.440 172
 64.445 189
 64.450 174
 64.455 155
 64.460 174
 64.465 181
 64.470 171
 64.475 177
 64.480 171
 64.485 186
 64.490 189
 64.495 173
 64.500 170
 64.505 182
 64.510 202
 64.515 188
 64.520 179
 64.525 170
 64.530 226
 64.535 183
 64.540 163
 64.545 187
 64.550 153
 64.555 158
 64.560 166
 64.565 159
 64.570 152
 64.575 118
 64.580 161
 64.585 145
 64.590 146
 64.595 147
 64.600 156
 64.605 157
 64.610 138
 64.615 160
 64.620 166
 64.625 143
 64.630 142
 64.635 148
 64.640 134
 64.645 141
 64.650 166
 64.655 155
 64.660 145
 64.665 179
 64.670 139
 64.675 182
 64.680 166
 64.685 177
 64.690 167
 64.695 166
 64.700 159
 64.705 165
 64.710 168
 64.715 173
 64.720 165
 64.725 200
 64.730 148
 64.735 165
 64.740 154
 64.745 138
 64.750 178
 64.755 156
 64.760 167
 64.765 143
 64.770 126
 64.775 149
 64.780 166
 64.785 169
 64.790 164
 64.795 150
 64.800 162
 64.805 160
 64.810 146
 64.815 129
 64.820 126
 64.825 139
 64.830 134
 64.835 123
 64.840 135
 64.845 143
 64.850 152
 64.855 162
 64.860 158
 64.865 154
 64.870 167
 64.875 142
 64.880 155
 64.885 126
 64.890 136
 64.895 136
 64.900 146
 64.905 144
 64.910 122
 64.915 130
 64.920 146
 64.925 142
 64.930 113
 64.935 126
 64.940 157
 64.945 129
 64.950 141
 64.955 154
 64.960 142
 64.965 153
 64.970 134
 64.975 149
 64.980 153
 64.985 156
 64.990 143
 64.995 164
 65.000 180
 65.005 151
 65.010 140
 65.015 167
 65.020 146
 65.025 145
 65.030 135
 65.035 132
 65.040 165
 65.045 143
 65.050 152
 65.055 158
 65.060 134
 65.065 140
 65.070 163
 65.075 159
 65.080 166
 65.085 162
 65.090 168
 65.095 165
 65.100 159
 65.105 177
 65.110 164
 65.115 164
 65.120 163
 65.125 164
 65.130 151
 65.135 143
 65.140 137
 65.145 116
 65.150 140
 65.155 120
 65.160 121
 65.165 124
 65.170 166
 65.175 126
 65.180 128
 65.185 139
 65.190 147
 65.195 147
 65.200 160
 65.205 179
 65.210 159
 65.215 199
 65.220 143
 65.225 161
 65.230 138
 65.235 167
 65.240 140
 65.245 168
 65.250 156
 65.255 131
 65.260 130
 65.265 149
 65.270 135
 65.275 141
 65.280 140
 65.285 136
 65.290 129
 65.295 156
 65.300 147
 65.305 146
 65.310 176
 65.315 175
 65.320 170
 65.325 153
 65.330 172
 65.335 178
 65.340 155
 65.345 161
 65.350 154
 65.355 174
 65.360 159
 65.365 163
 65.370 170
 65.375 155
 65.380 175
 65.385 173
 65.390 151
 65.395 147
 65.400 163
 65.405 164
 65.410 151
 65.415 168
 65.420 142
 65.425 154
 65.430 125
 65.435 124
 65.440 148
 65.445 168
 65.450 156
 65.455 129
 65.460 144
 65.465 163
 65.470 145
 65.475 156
 65.480 148
 65.485 159
 65.490 151
 65.495 147
 65.500 144
 65.505 140
 65.510 150
 65.515 144
 65.520 159
 65.525 156
 65.530 159
 65.535 162
 65.540 176
 65.545 172
 65.550 165
 65.555 163
 65.560 186
 65.565 202
 65.570 195
 65.575 189
 65.580 185
 65.585 216
 65.590 193
 65.595 172
 65.600 191
 65.605 196
 65.610 182
 65.615 174
 65.620 173
 65.625 182
 65.630 172
 65.635 164
 65.640 133
 65.645 143
 65.650 152
 65.655 172
 65.660 156
 65.665 131
 65.670 154
 65.675 148
 65.680 158
 65.685 168
 65.690 157
 65.695 160
 65.700 167
 65.705 174
 65.710 157
 65.715 157
 65.720 169
 65.725 159
 65.730 126
 65.735 153
 65.740 139
 65.745 127
 65.750 136
 65.755 151
 65.760 147
 65.765 149
 65.770 166
 65.775 164
 65.780 168
 65.785 144
 65.790 152
 65.795 155
 65.800 135
 65.805 155
 65.810 159
 65.815 166
 65.820 119
 65.825 163
 65.830 138
 65.835 119
 65.840 139
 65.845 135
 65.850 147
 65.855 137
 65.860 131
 65.865 137
 65.870 135
 65.875 137
 65.880 157
 65.885 158
 65.890 151
 65.895 167
 65.900 188
 65.905 184
 65.910 162
 65.915 159
 65.920 167
 65.925 164
 65.930 177
 65.935 171
 65.940 178
 65.945 187
 65.950 171
 65.955 192
 65.960 171
 65.965 186
 65.970 196
 65.975 183
 65.980 174
 65.985 208
 65.990 190
 65.995 186
 66.000 185
 66.005 208
 66.010 187
 66.015 180
 66.020 180
 66.025 150
 66.030 155
 66.035 143
 66.040 186
 66.045 168
 66.050 143
 66.055 150
 66.060 162
 66.065 148
 66.070 172
 66.075 170
 66.080 169
 66.085 153
 66.090 170
 66.095 186
 66.100 173
 66.105 149
 66.110 148
 66.115 154
 66.120 156
 66.125 133
 66.130 141
 66.135 151
 66.140 172
 66.145 153
 66.150 180
 66.155 152
 66.160 157
 66.165 171
 66.170 170
 66.175 171
 66.180 155
 66.185 160
 66.190 164
 66.195 159
 66.200 188
 66.205 160
 66.210 159
 66.215 140
 66.220 186
 66.225 161
 66.230 154
 66.235 198
 66.240 174
 66.245 178
 66.250 191
 66.255 149
 66.260 178
 66.265 195
 66.270 180
 66.275 179
 66.280 168
 66.285 154
 66.290 137
 66.295 141
 66.300 136
 66.305 137
 66.310 139
 66.315 141
 66.320 156
 66.325 155
 66.330 153
 66.335 172
 66.340 146
 66.345 173
 66.350 176
 66.355 174
 66.360 163
 66.365 187
 66.370 154
 66.375 137
 66.380 122
 66.385 142
 66.390 130
 66.395 150
 66.400 156
 66.405 128
 66.410 139
 66.415 162
 66.420 146
 66.425 143
 66.430 153
 66.435 150
 66.440 125
 66.445 141
 66.450 130
 66.455 136
 66.460 143
 66.465 132
 66.470 121
 66.475 132
 66.480 131
 66.485 135
 66.490 121
 66.495 123
 66.500 140
 66.505 132
 66.510 168
 66.515 157
 66.520 156
 66.525 156
 66.530 144
 66.535 147
 66.540 159
 66.545 157
 66.550 140
 66.555 166
 66.560 143
 66.565 149
 66.570 133
 66.575 141
 66.580 148
 66.585 131
 66.590 159
 66.595 145
 66.600 145
 66.605 136
 66.610 137
 66.615 134
 66.620 115
 66.625 126
 66.630 115
 66.635 113
 66.640 144
 66.645 131
 66.650 129
 66.655 124
 66.660 122
 66.665 131
 66.670 129
 66.675 149
 66.680 124
 66.685 140
 66.690 138
 66.695 148
 66.700 139
 66.705 136
 66.710 150
 66.715 135
 66.720 151
 66.725 148
 66.730 140
 66.735 152
 66.740 129
 66.745 116
 66.750 133
 66.755 147
 66.760 134
 66.765 104
 66.770 151
 66.775 126
 66.780 140
 66.785 146
 66.790 154
 66.795 124
 66.800 133
 66.805 151
 66.810 142
 66.815 155
 66.820 139
 66.825 168
 66.830 173
 66.835 165
 66.840 141
 66.845 157
 66.850 155
 66.855 152
 66.860 152
 66.865 140
 66.870 144
 66.875 151
 66.880 122
 66.885 121
 66.890 123
 66.895 152
 66.900 132
 66.905 164
 66.910 142
 66.915 145
 66.920 163
 66.925 128
 66.930 142
 66.935 153
 66.940 136
 66.945 140
 66.950 126
 66.955 128
 66.960 141
 66.965 136
 66.970 120
 66.975 119
 66.980 136
 66.985 153
 66.990 139
 66.995 143
 67.000 137
 67.005 150
 67.010 151
 67.015 156
 67.020 173
 67.025 158
 67.030 159
 67.035 160
 67.040 147
 67.045 155
 67.050 122
 67.055 138
 67.060 153
 67.065 142
 67.070 147
 67.075 113
 67.080 127
 67.085 132
 67.090 114
 67.095 126
 67.100 147
 67.105 148
 67.110 124
 67.115 128
 67.120 140
 67.125 156
 67.130 158
 67.135 160
 67.140 152
 67.145 142
 67.150 145
 67.155 137
 67.160 139
 67.165 135
 67.170 134
 67.175 142
 67.180 163
 67.185 145
 67.190 118
 67.195 135
 67.200 139
 67.205 160
 67.210 136
 67.215 136
 67.220 120
 67.225 117
 67.230 127
 67.235 162
 67.240 152
 67.245 139
 67.250 152
 67.255 144
 67.260 143
 67.265 159
 67.270 141
 67.275 150
 67.280 155
 67.285 186
 67.290 182
 67.295 196
 67.300 200
 67.305 218
 67.310 199
 67.315 186
 67.320 195
 67.325 206
 67.330 180
 67.335 189
 67.340 175
 67.345 187
 67.350 177
 67.355 169
 67.360 193
 67.365 171
 67.370 199
 67.375 179
 67.380 203
 67.385 200
 67.390 190
 67.395 160
 67.400 189
 67.405 174
 67.410 179
 67.415 164
 67.420 151
 67.425 172
 67.430 175
 67.435 171
 67.440 154
 67.445 155
 67.450 174
 67.455 140
 67.460 138
 67.465 172
 67.470 126
 67.475 141
 67.480 143
 67.485 179
 67.490 147
 67.495 152
 67.500 159
 67.505 160
 67.510 140
 67.515 140
 67.520 149
 67.525 155
 67.530 119
 67.535 127
 67.540 134
 67.545 138
 67.550 125
 67.555 125
 67.560 135
 67.565 137
 67.570 116
 67.575 122
 67.580 121
 67.585 134
 67.590 117
 67.595 127
 67.600 118
 67.605 117
 67.610 128
 67.615 115
 67.620 131
 67.625 123
 67.630 110
 67.635 128
 67.640 125
 67.645 136
 67.650 133
 67.655 118
 67.660 133
 67.665 149
 67.670 137
 67.675 145
 67.680 139
 67.685 150
 67.690 158
 67.695 164
 67.700 160
 67.705 170
 67.710 175
 67.715 156
 67.720 166
 67.725 193
 67.730 150
 67.735 160
 67.740 146
 67.745 171
 67.750 128
 67.755 150
 67.760 118
 67.765 133
 67.770 135
 67.775 144
 67.780 129
 67.785 112
 67.790 119
 67.795 150
 67.800 131
 67.805 145
 67.810 134
 67.815 132
 67.820 121
 67.825 144
 67.830 131
 67.835 135
 67.840 148
 67.845 149
 67.850 143
 67.855 142
 67.860 134
 67.865 142
 67.870 140
 67.875 140
 67.880 149
 67.885 129
 67.890 161
 67.895 157
 67.900 171
 67.905 198
 67.910 175
 67.915 198
 67.920 171
 67.925 158
 67.930 200
 67.935 192
 67.940 197
 67.945 194
 67.950 182
 67.955 182
 67.960 190
 67.965 178
 67.970 141
 67.975 152
 67.980 121
 67.985 139
 67.990 126
 67.995 123
 68.000 119
 68.005 127
 68.010 136
 68.015 138
 68.020 130
 68.025 128
 68.030 140
 68.035 155
 68.040 136
 68.045 121
 68.050 134
 68.055 143
 68.060 129
 68.065 145
 68.070 138
 68.075 145
 68.080 143
 68.085 150
 68.090 154
 68.095 157
 68.100 142
 68.105 148
 68.110 153
 68.115 133
 68.120 166
 68.125 147
 68.130 151
 68.135 144
 68.140 147
 68.145 157
 68.150 152
 68.155 133
 68.160 143
 68.165 150
 68.170 139
 68.175 129
 68.180 146
 68.185 160
 68.190 139
 68.195 146
 68.200 136
 68.205 102
 68.210 135
 68.215 130
 68.220 137
 68.225 139
 68.230 119
 68.235 143
 68.240 135
 68.245 144
 68.250 147
 68.255 131
 68.260 144
 68.265 151
 68.270 129
 68.275 130
 68.280 121
 68.285 132
 68.290 147
 68.295 161
 68.300 145
 68.305 123
 68.310 151
 68.315 114
 68.320 153
 68.325 143
 68.330 157
 68.335 176
 68.340 187
 68.345 200
 68.350 198
 68.355 197
 68.360 219
 68.365 189
 68.370 173
 68.375 168
 68.380 195
 68.385 199
 68.390 201
 68.395 215
 68.400 183
 68.405 199
 68.410 157
 68.415 161
 68.420 168
 68.425 184
 68.430 179
 68.435 176
 68.440 176
 68.445 194
 68.450 172
 68.455 200
 68.460 188
 68.465 214
 68.470 201
 68.475 237
 68.480 207
 68.485 211
 68.490 198
 68.495 179
 68.500 201
 68.505 174
 68.510 153
 68.515 166
 68.520 185
 68.525 155
 68.530 151
 68.535 146
 68.540 155
 68.545 154
 68.550 212
 68.555 213
 68.560 180
 68.565 158
 68.570 180
 68.575 181
 68.580 195
 68.585 167
 68.590 149
 68.595 159
 68.600 145
 68.605 161
 68.610 157
 68.615 165
 68.620 142
 68.625 182
 68.630 157
 68.635 159
 68.640 169
 68.645 160
 68.650 161
 68.655 145
 68.660 161
 68.665 170
 68.670 166
 68.675 160
 68.680 166
 68.685 178
 68.690 190
 68.695 156
 68.700 201
 68.705 189
 68.710 199
 68.715 163
 68.720 181
 68.725 171
 68.730 178
 68.735 181
 68.740 157
 68.745 180
 68.750 187
 68.755 168
 68.760 158
 68.765 154
 68.770 141
 68.775 166
 68.780 131
 68.785 138
 68.790 139
 68.795 150
 68.800 137
 68.805 157
 68.810 145
 68.815 145
 68.820 142
 68.825 125
 68.830 118
 68.835 144
 68.840 138
 68.845 129
 68.850 142
 68.855 133
 68.860 124
 68.865 130
 68.870 125
 68.875 112
 68.880 147
 68.885 141
 68.890 136
 68.895 148
 68.900 173
 68.905 147
 68.910 164
 68.915 136
 68.920 175
 68.925 149
 68.930 134
 68.935 143
 68.940 146
 68.945 135
 68.950 141
 68.955 155
 68.960 165
 68.965 162
 68.970 139
 68.975 144
 68.980 154
 68.985 119
 68.990 141
 68.995 125
 69.000 151
 69.005 151
 69.010 128
 69.015 144
 69.020 152
 69.025 173
 69.030 165
 69.035 167
 69.040 178
 69.045 177
 69.050 192
 69.055 167
 69.060 167
 69.065 186
 69.070 173
 69.075 173
 69.080 175
 69.085 186
 69.090 204
 69.095 177
 69.100 180
 69.105 189
 69.110 173
 69.115 209
 69.120 210
 69.125 211
 69.130 196
 69.135 188
 69.140 202
 69.145 191
 69.150 212
 69.155 228
 69.160 221
 69.165 259
 69.170 241
 69.175 221
 69.180 218
 69.185 190
 69.190 175
 69.195 157
 69.200 161
 69.205 161
 69.210 147
 69.215 180
 69.220 142
 69.225 145
 69.230 140
 69.235 149
 69.240 127
 69.245 153
 69.250 158
 69.255 169
 69.260 149
 69.265 156
 69.270 161
 69.275 153
 69.280 141
 69.285 142
 69.290 148
 69.295 132
 69.300 155
 69.305 134
 69.310 144
 69.315 143
 69.320 139
 69.325 148
 69.330 150
 69.335 144
 69.340 148
 69.345 155
 69.350 149
 69.355 154
 69.360 148
 69.365 170
 69.370 129
 69.375 156
 69.380 158
 69.385 135
 69.390 168
 69.395 154
 69.400 157
 69.405 142
 69.410 127
 69.415 139
 69.420 144
 69.425 115
 69.430 139
 69.435 128
 69.440 147
 69.445 124
 69.450 145
 69.455 145
 69.460 139
 69.465 130
 69.470 133
 69.475 117
 69.480 153
 69.485 158
 69.490 133
 69.495 137
 69.500 147
 69.505 125
 69.510 147
 69.515 123
 69.520 129
 69.525 112
 69.530 132
 69.535 136
 69.540 120
 69.545 115
 69.550 123
 69.555 132
 69.560 132
 69.565 142
 69.570 124
 69.575 119
 69.580 119
 69.585 130
 69.590 127
 69.595 111
 69.600 135
 69.605 111
 69.610 119
 69.615 123
 69.620 115
 69.625 145
 69.630 138
 69.635 135
 69.640 143
 69.645 116
 69.650 140
 69.655 125
 69.660 117
 69.665 130
 69.670 141
 69.675 114
 69.680 137
 69.685 135
 69.690 119
 69.695 134
 69.700 141
 69.705 152
 69.710 151
 69.715 133
 69.720 161
 69.725 177
 69.730 169
 69.735 165
 69.740 147
 69.745 166
 69.750 177
 69.755 175
 69.760 150
 69.765 141
 69.770 161
 69.775 157
 69.780 154
 69.785 149
 69.790 152
 69.795 162
 69.800 122
 69.805 115
 69.810 137
 69.815 152
 69.820 147
 69.825 143
 69.830 133
 69.835 143
 69.840 137
 69.845 145
 69.850 129
 69.855 140
 69.860 164
 69.865 149
 69.870 141
 69.875 139
 69.880 135
 69.885 133
 69.890 127
 69.895 151
 69.900 151
 69.905 142
 69.910 169
 69.915 145
 69.920 167
 69.925 150
 69.930 125
 69.935 141
 69.940 138
 69.945 141
 69.950 144
 69.955 131
 69.960 140
 69.965 148
 69.970 132
 69.975 119
 69.980 146
 69.985 181
 69.990 166
 69.995 174
 70.000 158
 70.005 147
 70.010 128
 70.015 147
 70.020 148
 70.025 168
 70.030 155
 70.035 149
 70.040 153
 70.045 144
 70.050 153
 70.055 153
 70.060 144
 70.065 161
 70.070 151
 70.075 165
 70.080 156
 70.085 178
 70.090 159
 70.095 140
 70.100 163
 70.105 164
 70.110 131
 70.115 139
 70.120 128
 70.125 114
 70.130 144
 70.135 179
 70.140 186
 70.145 153
 70.150 150
 70.155 141
 70.160 132
 70.165 145
 70.170 133
 70.175 140
 70.180 158
 70.185 156
 70.190 154
 70.195 131
 70.200 140
 70.205 133
 70.210 131
 70.215 118
 70.220 135
 70.225 127
 70.230 135
 70.235 133
 70.240 123
 70.245 141
 70.250 157
 70.255 153
 70.260 161
 70.265 163
 70.270 189
 70.275 179
 70.280 167
 70.285 169
 70.290 178
 70.295 152
 70.300 159
 70.305 163
 70.310 168
 70.315 139
 70.320 137
 70.325 157
 70.330 135
 70.335 173
 70.340 155
 70.345 161
 70.350 152
 70.355 157
 70.360 142
 70.365 149
 70.370 124
 70.375 154
 70.380 171
 70.385 156
 70.390 146
 70.395 152
 70.400 163
 70.405 157
 70.410 146
 70.415 154
 70.420 144
 70.425 155
 70.430 164
 70.435 142
 70.440 163
 70.445 151
 70.450 169
 70.455 164
 70.460 138
 70.465 151
 70.470 161
 70.475 128
 70.480 146
 70.485 163
 70.490 162
 70.495 161
 70.500 162
 70.505 138
 70.510 168
 70.515 171
 70.520 169
 70.525 177
 70.530 182
 70.535 175
 70.540 183
 70.545 153
 70.550 158
 70.555 175
 70.560 177
 70.565 141
 70.570 143
 70.575 129
 70.580 152
 70.585 132
 70.590 161
 70.595 145
 70.600 144
 70.605 134
 70.610 131
 70.615 161
 70.620 157
 70.625 154
 70.630 155
 70.635 173
 70.640 177
 70.645 171
 70.650 161
 70.655 153
 70.660 130
 70.665 153
 70.670 138
 70.675 139
 70.680 126
 70.685 130
 70.690 118
 70.695 144
 70.700 135
 70.705 139
 70.710 138
 70.715 162
 70.720 152
 70.725 148
 70.730 173
 70.735 137
 70.740 177
 70.745 156
 70.750 171
 70.755 174
 70.760 190
 70.765 200
 70.770 241
 70.775 196
 70.780 191
 70.785 233
 70.790 221
 70.795 221
 70.800 215
 70.805 183
 70.810 238
 70.815 201
 70.820 233
 70.825 208
 70.830 215
 70.835 206
 70.840 222
 70.845 226
 70.850 206
 70.855 248
 70.860 269
 70.865 237
 70.870 275
 70.875 246
 70.880 261
 70.885 255
 70.890 259
 70.895 223
 70.900 185
 70.905 177
 70.910 175
 70.915 161
 70.920 162
 70.925 158
 70.930 137
 70.935 160
 70.940 154
 70.945 143
 70.950 157
 70.955 154
 70.960 199
 70.965 180
 70.970 172
 70.975 195
 70.980 170
 70.985 180
 70.990 170
 70.995 157
 71.000 163
 71.005 157
 71.010 165
 71.015 147
 71.020 145
 71.025 161
 71.030 166
 71.035 146
 71.040 144
 71.045 142
 71.050 133
 71.055 160
 71.060 124
 71.065 147
 71.070 149
 71.075 159
 71.080 173
 71.085 159
 71.090 173
 71.095 176
 71.100 147
 71.105 147
 71.110 135
 71.115 121
 71.120 123
 71.125 136
 71.130 139
 71.135 154
 71.140 139
 71.145 143
 71.150 158
 71.155 161
 71.160 165
 71.165 185
 71.170 198
 71.175 194
 71.180 175
 71.185 177
 71.190 175
 71.195 154
 71.200 169
 71.205 162
 71.210 158
 71.215 152
 71.220 164
 71.225 167
 71.230 149
 71.235 137
 71.240 165
 71.245 154
 71.250 149
 71.255 150
 71.260 135
 71.265 151
 71.270 126
 71.275 159
 71.280 156
 71.285 165
 71.290 153
 71.295 193
 71.300 165
 71.305 166
 71.310 168
 71.315 179
 71.320 167
 71.325 190
 71.330 169
 71.335 148
 71.340 136
 71.345 152
 71.350 150
 71.355 130
 71.360 127
 71.365 153
 71.370 153
 71.375 172
 71.380 132
 71.385 125
 71.390 148
 71.395 157
 71.400 121
 71.405 146
 71.410 121
 71.415 128
 71.420 156
 71.425 106
 71.430 145
 71.435 146
 71.440 119
 71.445 137
 71.450 148
 71.455 160
 71.460 199
 71.465 171
 71.470 153
 71.475 164
 71.480 153
 71.485 165
 71.490 154
 71.495 154
 71.500 138
 71.505 139
 71.510 149
 71.515 138
 71.520 149
 71.525 145
 71.530 124
 71.535 133
 71.540 145
 71.545 146
 71.550 114
 71.555 146
 71.560 121
 71.565 137
 71.570 138
 71.575 140
 71.580 112
 71.585 139
 71.590 153
 71.595 138
 71.600 145
 71.605 137
 71.610 143
 71.615 144
 71.620 122
 71.625 141
 71.630 129
 71.635 141
 71.640 119
 71.645 138
 71.650 151
 71.655 166
 71.660 154
 71.665 136
 71.670 140
 71.675 157
 71.680 136
 71.685 150
 71.690 170
 71.695 180
 71.700 155
 71.705 159
 71.710 149
 71.715 146
 71.720 155
 71.725 181
 71.730 168
 71.735 153
 71.740 151
 71.745 148
 71.750 135
 71.755 152
 71.760 152
 71.765 142
 71.770 128
 71.775 124
 71.780 113
 71.785 130
 71.790 136
 71.795 142
 71.800 139
 71.805 119
 71.810 159
 71.815 138
 71.820 156
 71.825 165
 71.830 183
 71.835 148
 71.840 170
 71.845 158
 71.850 170
 71.855 173
 71.860 142
 71.865 155
 71.870 147
 71.875 151
 71.880 132
 71.885 134
 71.890 137
 71.895 126
 71.900 155
 71.905 110
 71.910 160
 71.915 128
 71.920 141
 71.925 141
 71.930 148
 71.935 155
 71.940 127
 71.945 137
 71.950 135
 71.955 131
 71.960 143
 71.965 143
 71.970 132
 71.975 144
 71.980 162
 71.985 126
 71.990 133
 71.995 146
 72.000 178
 72.005 149
 72.010 168
 72.015 153
 72.020 162
 72.025 167
 72.030 175
 72.035 165
 72.040 154
 72.045 148
 72.050 170
 72.055 151
 72.060 160
 72.065 159
 72.070 126
 72.075 146
 72.080 139
 72.085 143
 72.090 126
 72.095 132
 72.100 140
 72.105 122
 72.110 139
 72.115 115
 72.120 143
 72.125 141
 72.130 135
 72.135 130
 72.140 148
 72.145 130
 72.150 126
 72.155 137
 72.160 131
 72.165 149
 72.170 139
 72.175 152
 72.180 122
 72.185 140
 72.190 139
 72.195 129
 72.200 137
 72.205 152
 72.210 130
 72.215 135
 72.220 141
 72.225 134
 72.230 100
 72.235 148
 72.240 114
 72.245 114
 72.250 120
 72.255 129
 72.260 132
 72.265 142
 72.270 125
 72.275 155
 72.280 133
 72.285 139
 72.290 170
 72.295 141
 72.300 142
 72.305 154
 72.310 124
 72.315 145
 72.320 135
 72.325 159
 72.330 130
 72.335 148
 72.340 132
 72.345 155
 72.350 135
 72.355 134
 72.360 157
 72.365 150
 72.370 133
 72.375 116
 72.380 145
 72.385 122
 72.390 114
 72.395 121
 72.400 146
 72.405 121
 72.410 135
 72.415 139
 72.420 145
 72.425 144
 72.430 128
 72.435 135
 72.440 129
 72.445 128
 72.450 133
 72.455 113
 72.460 115
 72.465 121
 72.470 136
 72.475 118
 72.480 151
 72.485 144
 72.490 134
 72.495 137
 72.500 145
 72.505 146
 72.510 168
 72.515 155
 72.520 158
 72.525 174
 72.530 149
 72.535 141
 72.540 154
 72.545 154
 72.550 150
 72.555 162
 72.560 169
 72.565 156
 72.570 135
 72.575 135
 72.580 146
 72.585 137
 72.590 137
 72.595 146
 72.600 117
 72.605 119
 72.610 148
 72.615 119
 72.620 129
 72.625 137
 72.630 139
 72.635 136
 72.640 123
 72.645 122
 72.650 143
 72.655 134
 72.660 119
 72.665 136
 72.670 124
 72.675 152
 72.680 150
 72.685 158
 72.690 137
 72.695 161
 72.700 144
 72.705 130
 72.710 151
 72.715 137
 72.720 129
 72.725 149
 72.730 128
 72.735 141
 72.740 165
 72.745 130
 72.750 137
 72.755 133
 72.760 125
 72.765 130
 72.770 158
 72.775 140
 72.780 131
 72.785 138
 72.790 146
 72.795 158
 72.800 159
 72.805 150
 72.810 126
 72.815 153
 72.820 140
 72.825 125
 72.830 155
 72.835 142
 72.840 144
 72.845 129
 72.850 136
 72.855 135
 72.860 119
 72.865 132
 72.870 136
 72.875 148
 72.880 128
 72.885 142
 72.890 144
 72.895 158
 72.900 160
 72.905 169
 72.910 151
 72.915 177
 72.920 144
 72.925 182
 72.930 164
 72.935 187
 72.940 190
 72.945 195
 72.950 199
 72.955 196
 72.960 200
 72.965 194
 72.970 191
 72.975 178
 72.980 203
 72.985 188
 72.990 224
 72.995 224
 73.000 201
 73.005 218
 73.010 222
 73.015 205
 73.020 216
 73.025 223
 73.030 221
 73.035 230
 73.040 186
 73.045 184
 73.050 183
 73.055 165
 73.060 149
 73.065 164
 73.070 171
 73.075 155
 73.080 132
 73.085 145
 73.090 148
 73.095 162
 73.100 168
 73.105 168
 73.110 144
 73.115 126
 73.120 155
 73.125 161
 73.130 135
 73.135 174
 73.140 158
 73.145 140
 73.150 139
 73.155 135
 73.160 138
 73.165 136
 73.170 155
 73.175 146
 73.180 113
 73.185 131
 73.190 137
 73.195 144
 73.200 141
 73.205 153
 73.210 140
 73.215 129
 73.220 135
 73.225 139
 73.230 156
 73.235 139
 73.240 185
 73.245 171
 73.250 181
 73.255 180
 73.260 159
 73.265 158
 73.270 157
 73.275 160
 73.280 128
 73.285 143
 73.290 135
 73.295 128
 73.300 134
 73.305 136
 73.310 143
 73.315 151
 73.320 129
 73.325 137
 73.330 180
 73.335 195
 73.340 196
 73.345 183
 73.350 192
 73.355 227
 73.360 151
 73.365 180
 73.370 164
 73.375 157
 73.380 148
 73.385 157
 73.390 154
 73.395 152
 73.400 112
 73.405 133
 73.410 142
 73.415 156
 73.420 146
 73.425 144
 73.430 175
 73.435 173
 73.440 175
 73.445 170
 73.450 190
 73.455 184
 73.460 209
 73.465 181
 73.470 179
 73.475 194
 73.480 180
 73.485 148
 73.490 155
 73.495 125
 73.500 126
 73.505 132
 73.510 163
 73.515 129
 73.520 126
 73.525 145
 73.530 129
 73.535 111
 73.540 141
 73.545 127
 73.550 142
 73.555 129
 73.560 139
 73.565 126
 73.570 111
 73.575 107
 73.580 125
 73.585 115
 73.590 133
 73.595 111
 73.600 108
 73.605 105
 73.610 137
 73.615 139
 73.620 127
 73.625 117
 73.630 126
 73.635 108
 73.640 138
 73.645 132
 73.650 138
 73.655 115
 73.660 107
 73.665 126
 73.670 138
 73.675 113
 73.680 120
 73.685 130
 73.690 142
 73.695 161
 73.700 149
 73.705 190
 73.710 144
 73.715 179
 73.720 182
 73.725 174
 73.730 197
 73.735 195
 73.740 187
 73.745 196
 73.750 179
 73.755 195
 73.760 152
 73.765 168
 73.770 228
 73.775 176
 73.780 152
 73.785 150
 73.790 142
 73.795 167
 73.800 147
 73.805 147
 73.810 162
 73.815 152
 73.820 153
 73.825 167
 73.830 152
 73.835 170
 73.840 129
 73.845 149
 73.850 161
 73.855 170
 73.860 164
 73.865 176
 73.870 152
 73.875 164
 73.880 166
 73.885 167
 73.890 149
 73.895 154
 73.900 136
 73.905 138
 73.910 136
 73.915 137
 73.920 111
 73.925 113
 73.930 112
 73.935 124
 73.940 141
 73.945 153
 73.950 133
 73.955 133
 73.960 129
 73.965 126
 73.970 156
 73.975 130
 73.980 125
 73.985 153
 73.990 150
 73.995 134
 74.000 141
 74.005 164
 74.010 167
 74.015 170
 74.020 143
 74.025 186
 74.030 192
 74.035 142
 74.040 152
 74.045 165
 74.050 176
 74.055 151
 74.060 173
 74.065 167
 74.070 121
 74.075 152
 74.080 152
 74.085 151
 74.090 153
 74.095 148
 74.100 157
 74.105 146
 74.110 141
 74.115 154
 74.120 132
 74.125 139
 74.130 125
 74.135 133
 74.140 118
 74.145 105
 74.150 109
 74.155 119
 74.160 123
 74.165 141
 74.170 113
 74.175 128
 74.180 130
 74.185 136
 74.190 137
 74.195 149
 74.200 119
 74.205 130
 74.210 117
 74.215 135
 74.220 148
 74.225 128
 74.230 142
 74.235 125
 74.240 171
 74.245 143
 74.250 131
 74.255 149
 74.260 146
 74.265 135
 74.270 149
 74.275 145
 74.280 139
 74.285 146
 74.290 136
 74.295 152
 74.300 139
 74.305 146
 74.310 118
 74.315 134
 74.320 138
 74.325 136
 74.330 146
 74.335 174
 74.340 139
 74.345 156
 74.350 174
 74.355 131
 74.360 151
 74.365 175
 74.370 174
 74.375 165
 74.380 137
 74.385 153
 74.390 146
 74.395 141
 74.400 145
 74.405 152
 74.410 148
 74.415 172
 74.420 168
 74.425 168
 74.430 142
 74.435 165
 74.440 139
 74.445 146
 74.450 163
 74.455 169
 74.460 177
 74.465 146
 74.470 145
 74.475 155
 74.480 153
 74.485 172
 74.490 137
 74.495 141
 74.500 148
 74.505 147
 74.510 144
 74.515 130
 74.520 149
 74.525 116
 74.530 146
 74.535 174
 74.540 154
 74.545 160
 74.550 134
 74.555 162
 74.560 146
 74.565 152
 74.570 162
 74.575 159
 74.580 177
 74.585 169
 74.590 173
 74.595 180
 74.600 173
 74.605 176
 74.610 186
 74.615 167
 74.620 151
 74.625 187
 74.630 183
 74.635 175
 74.640 205
 74.645 166
 74.650 166
 74.655 167
 74.660 166
 74.665 183
 74.670 146
 74.675 148
 74.680 145
 74.685 147
 74.690 149
 74.695 134
 74.700 138
 74.705 141
 74.710 163
 74.715 172
 74.720 149
 74.725 161
 74.730 154
 74.735 170
 74.740 180
 74.745 172
 74.750 183
 74.755 131
 74.760 136
 74.765 132
 74.770 164
 74.775 133
 74.780 120
 74.785 119
 74.790 144
 74.795 140
 74.800 125
 74.805 140
 74.810 122
 74.815 137
 74.820 125
 74.825 123
 74.830 131
 74.835 121
 74.840 122
 74.845 150
 74.850 135
 74.855 136
 74.860 133
 74.865 150
 74.870 163
 74.875 135
 74.880 131
 74.885 125
 74.890 125
 74.895 131
 74.900 128
 74.905 121
 74.910 124
 74.915 146
 74.920 137
 74.925 142
 74.930 153
 74.935 127
 74.940 144
 74.945 129
 74.950 155
 74.955 142
 74.960 152
 74.965 132
 74.970 121
 74.975 149
 74.980 159
 74.985 149
 74.990 148
 74.995 134
 75.000 149
 75.005 172
 75.010 147
 75.015 156
 75.020 135
 75.025 137
 75.030 144
 75.035 148
 75.040 123
 75.045 131
 75.050 134
 75.055 143
 75.060 104
 75.065 120
 75.070 112
 75.075 114
 75.080 125
 75.085 126
 75.090 124
 75.095 94
 75.100 127
 75.105 125
 75.110 131
 75.115 132
 75.120 112
 75.125 147
 75.130 138
 75.135 125
 75.140 161
 75.145 157
 75.150 127
 75.155 145
 75.160 119
 75.165 145
 75.170 127
 75.175 154
 75.180 116
 75.185 140
 75.190 132
 75.195 125
 75.200 128
 75.205 133
 75.210 138
 75.215 133
 75.220 123
 75.225 128
 75.230 152
 75.235 164
 75.240 128
 75.245 133
 75.250 116
 75.255 139
 75.260 139
 75.265 113
 75.270 121
 75.275 115
 75.280 126
 75.285 132
 75.290 134
 75.295 134
 75.300 127
 75.305 138
 75.310 148
 75.315 151
 75.320 131
 75.325 143
 75.330 138
 75.335 137
 75.340 143
 75.345 120
 75.350 134
 75.355 138
 75.360 132
 75.365 125
 75.370 124
 75.375 139
 75.380 125
 75.385 130
 75.390 117
 75.395 122
 75.400 163
 75.405 156
 75.410 177
 75.415 140
 75.420 165
 75.425 161
 75.430 167
 75.435 157
 75.440 144
 75.445 141
 75.450 136
 75.455 164
 75.460 138
 75.465 155
 75.470 134
 75.475 161
 75.480 156
 75.485 173
 75.490 188
 75.495 168
 75.500 169
 75.505 186
 75.510 183
 75.515 175
 75.520 204
 75.525 187
 75.530 185
 75.535 185
 75.540 205
 75.545 193
 75.550 184
 75.555 184
 75.560 203
 75.565 207
 75.570 169
 75.575 195
 75.580 185
 75.585 181
 75.590 168
 75.595 166
 75.600 169
 75.605 158
 75.610 153
 75.615 141
 75.620 130
 75.625 159
 75.630 125
 75.635 119
 75.640 148
 75.645 137
 75.650 160
 75.655 128
 75.660 137
 75.665 140
 75.670 146
 75.675 140
 75.680 156
 75.685 128
 75.690 138
 75.695 145
 75.700 148
 75.705 153
 75.710 142
 75.715 171
 75.720 151
 75.725 160
 75.730 197
 75.735 200
 75.740 142
 75.745 155
 75.750 183
 75.755 169
 75.760 173
 75.765 182
 75.770 175
 75.775 180
 75.780 161
 75.785 155
 75.790 133
 75.795 144
 75.800 166
 75.805 122
 75.810 128
 75.815 118
 75.820 152
 75.825 135
 75.830 123
 75.835 123
 75.840 128
 75.845 139
 75.850 125
 75.855 138
 75.860 131
 75.865 114
 75.870 144
 75.875 134
 75.880 140
 75.885 150
 75.890 156
 75.895 135
 75.900 142
 75.905 139
 75.910 136
 75.915 132
 75.920 137
 75.925 132
 75.930 146
 75.935 123
 75.940 119
 75.945 132
 75.950 131
 75.955 124
 75.960 127
 75.965 146
 75.970 147
 75.975 132
 75.980 122
 75.985 143
 75.990 129
 75.995 149
 76.000 158
 76.005 133
 76.010 168
 76.015 137
 76.020 139
 76.025 144
 76.030 149
 76.035 133
 76.040 155
 76.045 146
 76.050 144
 76.055 146
 76.060 134
 76.065 130
 76.070 139
 76.075 141
 76.080 158
 76.085 143
 76.090 120
 76.095 132
 76.100 154
 76.105 147
 76.110 144
 76.115 119
 76.120 133
 76.125 139
 76.130 150
 76.135 121
 76.140 125
 76.145 118
 76.150 136
 76.155 125
 76.160 117
 76.165 130
 76.170 144
 76.175 142
 76.180 125
 76.185 126
 76.190 127
 76.195 141
 76.200 110
 76.205 131
 76.210 132
 76.215 136
 76.220 150
 76.225 142
 76.230 128
 76.235 152
 76.240 130
 76.245 147
 76.250 131
 76.255 174
 76.260 151
 76.265 161
 76.270 140
 76.275 142
 76.280 142
 76.285 138
 76.290 129
 76.295 133
 76.300 155
 76.305 145
 76.310 109
 76.315 142
 76.320 134
 76.325 143
 76.330 134
 76.335 143
 76.340 125
 76.345 126
 76.350 130
 76.355 131
 76.360 140
 76.365 114
 76.370 116
 76.375 122
 76.380 117
 76.385 126
 76.390 125
 76.395 137
 76.400 139
 76.405 118
 76.410 110
 76.415 137
 76.420 115
 76.425 136
 76.430 123
 76.435 128
 76.440 125
 76.445 110
 76.450 128
 76.455 114
 76.460 114
 76.465 121
 76.470 112
 76.475 92
 76.480 129
 76.485 129
 76.490 104
 76.495 130
 76.500 102
 76.505 131
 76.510 133
 76.515 131
 76.520 125
 76.525 126
 76.530 134
 76.535 115
 76.540 123
 76.545 141
 76.550 114
 76.555 114
 76.560 103
 76.565 134
 76.570 97
 76.575 104
 76.580 129
 76.585 119
 76.590 109
 76.595 140
 76.600 131
 76.605 126
 76.610 129
 76.615 122
 76.620 145
 76.625 128
 76.630 103
 76.635 123
 76.640 110
 76.645 129
 76.650 117
 76.655 118
 76.660 148
 76.665 126
 76.670 112
 76.675 118
 76.680 133
 76.685 120
 76.690 113
 76.695 112
 76.700 116
 76.705 127
 76.710 123
 76.715 142
 76.720 127
 76.725 123
 76.730 144
 76.735 110
 76.740 129
 76.745 132
 76.750 146
 76.755 132
 76.760 144
 76.765 119
 76.770 152
 76.775 134
 76.780 141
 76.785 145
 76.790 139
 76.795 110
 76.800 121
 76.805 117
 76.810 129
 76.815 131
 76.820 116
 76.825 129
 76.830 112
 76.835 109
 76.840 117
 76.845 119
 76.850 144
 76.855 128
 76.860 122
 76.865 120
 76.870 131
 76.875 110
 76.880 119
 76.885 128
 76.890 159
 76.895 161
 76.900 158
 76.905 174
 76.910 150
 76.915 145
 76.920 161
 76.925 136
 76.930 137
 76.935 141
 76.940 131
 76.945 133
 76.950 130
 76.955 137
 76.960 124
 76.965 166
 76.970 168
 76.975 154
 76.980 140
 76.985 138
 76.990 142
 76.995 99
 77.000 134
 77.005 151
 77.010 148
 77.015 173
 77.020 140
 77.025 140
 77.030 134
 77.035 135
 77.040 175
 77.045 143
 77.050 164
 77.055 151
 77.060 151
 77.065 130
 77.070 144
 77.075 135
 77.080 132
 77.085 146
 77.090 121
 77.095 146
 77.100 149
 77.105 124
 77.110 142
 77.115 141
 77.120 143
 77.125 133
 77.130 141
 77.135 153
 77.140 132
 77.145 156
 77.150 133
 77.155 149
 77.160 138
 77.165 152
 77.170 149
 77.175 129
 77.180 140
 77.185 131
 77.190 124
 77.195 144
 77.200 167
 77.205 142
 77.210 159
 77.215 152
 77.220 157
 77.225 137
 77.230 139
 77.235 164
 77.240 167
 77.245 158
 77.250 137
 77.255 160
 77.260 154
 77.265 137
 77.270 146
 77.275 151
 77.280 148
 77.285 155
 77.290 134
 77.295 157
 77.300 169
 77.305 154
 77.310 147
 77.315 170
 77.320 158
 77.325 144
 77.330 126
 77.335 142
 77.340 136
 77.345 159
 77.350 143
 77.355 141
 77.360 140
 77.365 134
 77.370 125
 77.375 141
 77.380 139
 77.385 142
 77.390 119
 77.395 157
 77.400 153
 77.405 138
 77.410 122
 77.415 130
 77.420 140
 77.425 118
 77.430 127
 77.435 121
 77.440 123
 77.445 125
 77.450 141
 77.455 122
 77.460 104
 77.465 142
 77.470 118
 77.475 119
 77.480 106
 77.485 113
 77.490 102
 77.495 105
 77.500 104
 77.505 102
 77.510 120
 77.515 124
 77.520 115
 77.525 130
 77.530 127
 77.535 135
 77.540 134
 77.545 144
 77.550 138
 77.555 127
 77.560 133
 77.565 132
 77.570 122
 77.575 141
 77.580 111
 77.585 142
 77.590 156
 77.595 158
 77.600 140
 77.605 113
 77.610 148
 77.615 150
 77.620 136
 77.625 131
 77.630 119
 77.635 141
 77.640 116
 77.645 136
 77.650 150
 77.655 129
 77.660 117
 77.665 124
 77.670 126
 77.675 116
 77.680 126
 77.685 146
 77.690 152
 77.695 143
 77.700 133
 77.705 135
 77.710 150
 77.715 147
 77.720 158
 77.725 149
 77.730 156
 77.735 150
 77.740 146
 77.745 158
 77.750 148
 77.755 154
 77.760 129
 77.765 157
 77.770 162
 77.775 135
 77.780 127
 77.785 125
 77.790 141
 77.795 113
 77.800 118
 77.805 115
 77.810 123
 77.815 135
 77.820 114
 77.825 103
 77.830 134
 77.835 124
 77.840 126
 77.845 133
 77.850 137
 77.855 120
 77.860 112
 77.865 115
 77.870 124
 77.875 106
 77.880 117
 77.885 114
 77.890 105
 77.895 121
 77.900 90
 77.905 106
 77.910 111
 77.915 101
 77.920 129
 77.925 99
 77.930 121
 77.935 103
 77.940 99
 77.945 122
 77.950 125
 77.955 114
 77.960 107
 77.965 120
 77.970 108
 77.975 115
 77.980 109
 77.985 124
 77.990 122
 77.995 125
 78.000 115
 78.005 118
 78.010 103
 78.015 112
 78.020 124
 78.025 122
 78.030 119
 78.035 103
 78.040 123
 78.045 110
 78.050 136
 78.055 141
 78.060 131
 78.065 120
 78.070 150
 78.075 151
 78.080 155
 78.085 154
 78.090 143
 78.095 157
 78.100 156
 78.105 178
 78.110 168
 78.115 157
 78.120 140
 78.125 158
 78.130 116
 78.135 129
 78.140 140
 78.145 129
 78.150 146
 78.155 149
 78.160 138
 78.165 121
 78.170 127
 78.175 113
 78.180 132
 78.185 150
 78.190 144
 78.195 169
 78.200 123
 78.205 110
 78.210 132
 78.215 119
 78.220 119
 78.225 123
 78.230 132
 78.235 113
 78.240 140
 78.245 127
 78.250 129
 78.255 127
 78.260 136
 78.265 126
 78.270 127
 78.275 120
 78.280 155
 78.285 132
 78.290 135
 78.295 115
 78.300 112
 78.305 99
 78.310 117
 78.315 114
 78.320 124
 78.325 133
 78.330 142
 78.335 154
 78.340 124
 78.345 144
 78.350 147
 78.355 148
 78.360 126
 78.365 144
 78.370 138
 78.375 133
 78.380 147
 78.385 140
 78.390 117
 78.395 107
 78.400 108
 78.405 111
 78.410 141
 78.415 119
 78.420 118
 78.425 121
 78.430 118
 78.435 123
 78.440 143
 78.445 110
 78.450 136
 78.455 123
 78.460 130
 78.465 124
 78.470 117
 78.475 129
 78.480 128
 78.485 129
 78.490 123
 78.495 111
 78.500 114
 78.505 125
 78.510 114
 78.515 119
 78.520 130
 78.525 118
 78.530 133
 78.535 106
 78.540 116
 78.545 142
 78.550 114
 78.555 116
 78.560 156
 78.565 116
 78.570 107
 78.575 131
 78.580 130
 78.585 122
 78.590 132
 78.595 118
 78.600 127
 78.605 114
 78.610 152
 78.615 120
 78.620 128
 78.625 120
 78.630 156
 78.635 150
 78.640 147
 78.645 118
 78.650 130
 78.655 135
 78.660 126
 78.665 139
 78.670 123
 78.675 132
 78.680 147
 78.685 114
 78.690 129
 78.695 110
 78.700 135
 78.705 133
 78.710 128
 78.715 146
 78.720 141
 78.725 127
 78.730 114
 78.735 123
 78.740 137
 78.745 101
 78.750 133
 78.755 135
 78.760 133
 78.765 111
 78.770 135
 78.775 134
 78.780 123
 78.785 132
 78.790 136
 78.795 121
 78.800 117
 78.805 130
 78.810 119
 78.815 137
 78.820 146
 78.825 113
 78.830 126
 78.835 128
 78.840 114
 78.845 122
 78.850 113
 78.855 115
 78.860 131
 78.865 143
 78.870 123
 78.875 107
 78.880 140
 78.885 137
 78.890 129
 78.895 128
 78.900 130
 78.905 176
 78.910 150
 78.915 139
 78.920 127
 78.925 143
 78.930 151
 78.935 131
 78.940 109
 78.945 139
 78.950 116
 78.955 126
 78.960 131
 78.965 115
 78.970 146
 78.975 129
 78.980 118
 78.985 114
 78.990 129
 78.995 117
 79.000 111
 79.005 121
 79.010 101
 79.015 113
 79.020 101
 79.025 128
 79.030 105
 79.035 127
 79.040 128
 79.045 118
 79.050 128
 79.055 124
 79.060 138
 79.065 112
 79.070 154
 79.075 137
 79.080 120
 79.085 117
 79.090 120
 79.095 123
 79.100 120
 79.105 107
 79.110 117
 79.115 125
 79.120 120
 79.125 114
 79.130 110
 79.135 133
 79.140 115
 79.145 122
 79.150 133
 79.155 113
 79.160 115
 79.165 125
 79.170 99
 79.175 125
 79.180 115
 79.185 138
 79.190 120
 79.195 134
 79.200 129
 79.205 141
 79.210 118
 79.215 140
 79.220 129
 79.225 122
 79.230 128
 79.235 128
 79.240 124
 79.245 108
 79.250 117
 79.255 120
 79.260 154
 79.265 115
 79.270 155
 79.275 138
 79.280 158
 79.285 135
 79.290 167
 79.295 172
 79.300 168
 79.305 164
 79.310 156
 79.315 161
 79.320 172
 79.325 180
 79.330 166
 79.335 174
 79.340 154
 79.345 125
 79.350 156
 79.355 141
 79.360 146
 79.365 143
 79.370 116
 79.375 148
 79.380 149
 79.385 146
 79.390 149
 79.395 152
 79.400 156
 79.405 139
 79.410 166
 79.415 148
 79.420 165
 79.425 135
 79.430 119
 79.435 132
 79.440 153
 79.445 154
 79.450 138
 79.455 145
 79.460 120
 79.465 117
 79.470 128
 79.475 134
 79.480 118
 79.485 112
 79.490 115
 79.495 135
 79.500 133
 79.505 137
 79.510 137
 79.515 127
 79.520 131
 79.525 133
 79.530 143
 79.535 118
 79.540 114
 79.545 140
 79.550 146
 79.555 134
 79.560 154
 79.565 130
 79.570 117
 79.575 126
 79.580 141
 79.585 135
 79.590 129
 79.595 133
 79.600 130
 79.605 145
 79.610 135
 79.615 156
 79.620 125
 79.625 125
 79.630 117
 79.635 130
 79.640 125
 79.645 110
 79.650 135
 79.655 112
 79.660 132
 79.665 134
 79.670 112
 79.675 137
 79.680 109
 79.685 108
 79.690 121
 79.695 115
 79.700 122
 79.705 138
 79.710 135
 79.715 117
 79.720 129
 79.725 134
 79.730 132
 79.735 110
 79.740 135
 79.745 133
 79.750 148
 79.755 134
 79.760 120
 79.765 126
 79.770 143
 79.775 153
 79.780 141
 79.785 119
 79.790 136
 79.795 124
 79.800 120
 79.805 117
 79.810 124
 79.815 116
 79.820 121
 79.825 112
 79.830 108
 79.835 118
 79.840 102
 79.845 105
 79.850 110
 79.855 124
 79.860 111
 79.865 125
 79.870 114
 79.875 131
 79.880 119
 79.885 129
 79.890 111
 79.895 99
 79.900 140
 79.905 116
 79.910 122
 79.915 127
 79.920 121
 79.925 118
 79.930 108
 79.935 122
 79.940 103
 79.945 104
 79.950 104
 79.955 120
 79.960 106
 79.965 102
 79.970 105
 79.975 116
 79.980 92
 79.985 115
 79.990 103
 79.995 82
 80.000 86
